;Freq(Hz)	Relative Amplitude (dB): Left
18984.3750	-79.941238
18987.3047	-79.952187
18990.2344	-79.960541
18993.1641	-79.966446
18996.0938	-79.979210
18999.0234	-80.001785
19001.9531	-80.005760
19004.8828	-80.010010
19007.8125	-80.036461
19010.7422	-80.029732
19013.6719	-80.005676
19016.6016	-80.033432
19019.5312	-80.091621
19022.4609	-80.129486
19025.3906	-80.138618
19028.3203	-80.119324
19031.2500	-80.101379
19034.1797	-80.093109
19037.1094	-80.090347
19040.0391	-80.094406
19042.9688	-80.117027
19045.8984	-80.124504
19048.8281	-80.135834
19051.7578	-80.161232
19054.6875	-80.156487
19057.6172	-80.145699
19060.5469	-80.143257
19063.4766	-80.161819
19066.4062	-80.189789
19069.3359	-80.203850
19072.2656	-80.194183
19075.1953	-80.200317
19078.1250	-80.246475
19081.0547	-80.259148
19083.9844	-80.225647
19086.9141	-80.209801
19089.8438	-80.217171
19092.7734	-80.217834
19095.7031	-80.213951
19098.6328	-80.241455
19101.5625	-80.268311
19104.4922	-80.265793
19107.4219	-80.286545
19110.3516	-80.309082
19113.2812	-80.304955
19116.2109	-80.305664
19119.1406	-80.331383
19122.0703	-80.357452
19125.0000	-80.356651
19127.9297	-80.367340
19130.8594	-80.386559
19133.7891	-80.395348
19136.7188	-80.419113
19139.6484	-80.446136
19142.5781	-80.470467
19145.5078	-80.483383
19148.4375	-80.477097
19151.3672	-80.477798
19154.2969	-80.507080
19157.2266	-80.525360
19160.1562	-80.514076
19163.0859	-80.499939
19166.0156	-80.473717
19168.9453	-80.460625
19171.8750	-80.494881
19174.8047	-80.542381
19177.7344	-80.561989
19180.6641	-80.559036
19183.5938	-80.544044
19186.5234	-80.518623
19189.4531	-80.529472
19192.3828	-80.575455
19195.3125	-80.591858
19198.2422	-80.567879
19201.1719	-80.577812
19204.1016	-80.642654
19207.0312	-80.674896
19209.9609	-80.658485
19212.8906	-80.664474
19215.8203	-80.701393
19218.7500	-80.719124
19221.6797	-80.720428
19224.6094	-80.742470
19227.5391	-80.771713
19230.4688	-80.800247
19233.3984	-80.814934
19236.3281	-80.796814
19239.2578	-80.801682
19242.1875	-80.842186
19245.1172	-80.848846
19248.0469	-80.813942
19250.9766	-80.806152
19253.9062	-80.838600
19256.8359	-80.886642
19259.7656	-80.948647
19262.6953	-80.985756
19265.6250	-80.980499
19268.5547	-80.966110
19271.4844	-80.964027
19274.4141	-80.987762
19277.3438	-81.033356
19280.2734	-81.066414
19283.2031	-81.048103
19286.1328	-81.053131
19289.0625	-81.078049
19291.9922	-81.058411
19294.9219	-81.054070
19297.8516	-81.083069
19300.7812	-81.103630
19303.7109	-81.116341
19306.6406	-81.125740
19309.5703	-81.152969
19312.5000	-81.160225
19315.4297	-81.134247
19318.3594	-81.143188
19321.2891	-81.158333
19324.2188	-81.163513
19327.1484	-81.211792
19330.0781	-81.243988
19333.0078	-81.241013
19335.9375	-81.241371
19338.8672	-81.238144
19341.7969	-81.264038
19344.7266	-81.310982
19347.6562	-81.318733
19350.5859	-81.304588
19353.5156	-81.326912
19356.4453	-81.373238
19359.3750	-81.395760
19362.3047	-81.405235
19365.2344	-81.417297
19368.1641	-81.433571
19371.0938	-81.457283
19374.0234	-81.471413
19376.9531	-81.495293
19379.8828	-81.525688
19382.8125	-81.532166
19385.7422	-81.518616
19388.6719	-81.519112
19391.6016	-81.555412
19394.5312	-81.592056
19397.4609	-81.598244
19400.3906	-81.606712
19403.3203	-81.647865
19406.2500	-81.672836
19409.1797	-81.665047
19412.1094	-81.674774
19415.0391	-81.683861
19417.9688	-81.700165
19420.8984	-81.763458
19423.8281	-81.819412
19426.7578	-81.833633
19429.6875	-81.856331
19432.6172	-81.895576
19435.5469	-81.913864
19438.4766	-81.910522
19441.4062	-81.897804
19444.3359	-81.934784
19447.2656	-81.995247
19450.1953	-82.024704
19453.1250	-82.062782
19456.0547	-82.069031
19458.9844	-82.084175
19461.9141	-82.108322
19464.8438	-82.116806
19467.7734	-82.140457
19470.7031	-82.144814
19473.6328	-82.170906
19476.5625	-82.221298
19479.4922	-82.238556
19482.4219	-82.250084
19485.3516	-82.268791
19488.2812	-82.286568
19491.2109	-82.317108
19494.1406	-82.352356
19497.0703	-82.371307
19500.0000	-82.363937
19502.9297	-82.364876
19505.8594	-82.404411
19508.7891	-82.459976
19511.7188	-82.508499
19514.6484	-82.540390
19517.5781	-82.542717
19520.5078	-82.537086
19523.4375	-82.575745
19526.3672	-82.630127
19529.2969	-82.646149
19532.2266	-82.679665
19535.1562	-82.745216
19538.0859	-82.792877
19541.0156	-82.821831
19543.9453	-82.856316
19546.8750	-82.899345
19549.8047	-82.907410
19552.7344	-82.899940
19555.6641	-82.949486
19558.5938	-82.991257
19561.5234	-82.981873
19564.4531	-83.028000
19567.3828	-83.127220
19570.3125	-83.193169
19573.2422	-83.236420
19576.1719	-83.256691
19579.1016	-83.264877
19582.0312	-83.296440
19584.9609	-83.331512
19587.8906	-83.357399
19590.8203	-83.387146
19593.7500	-83.436234
19596.6797	-83.498940
19599.6094	-83.556831
19602.5391	-83.592964
19605.4688	-83.633682
19608.3984	-83.690582
19611.3281	-83.722282
19614.2578	-83.732330
19617.1875	-83.780228
19620.1172	-83.850456
19623.0469	-83.888062
19625.9766	-83.937019
19628.9062	-83.991371
19631.8359	-84.047577
19634.7656	-84.119957
19637.6953	-84.180130
19640.6250	-84.252762
19643.5547	-84.281487
19646.4844	-84.263763
19649.4141	-84.313622
19652.3438	-84.393974
19655.2734	-84.469727
19658.2031	-84.572716
19661.1328	-84.634232
19664.0625	-84.640442
19666.9922	-84.675743
19669.9219	-84.761292
19672.8516	-84.875626
19675.7812	-84.975670
19678.7109	-85.046410
19681.6406	-85.092812
19684.5703	-85.161697
19687.5000	-85.259872
19690.4297	-85.315605
19693.3594	-85.369789
19696.2891	-85.462448
19699.2188	-85.581680
19702.1484	-85.648422
19705.0781	-85.683578
19708.0078	-85.779617
19710.9375	-85.899422
19713.8672	-85.944344
19716.7969	-85.989639
19719.7266	-86.115356
19722.6562	-86.218178
19725.5859	-86.290932
19728.5156	-86.425934
19731.4453	-86.574242
19734.3750	-86.648262
19737.3047	-86.735916
19740.2344	-86.839851
19743.1641	-86.976326
19746.0938	-87.193840
19749.0234	-87.298668
19751.9531	-87.276657
19754.8828	-87.351883
19757.8125	-87.559616
19760.7422	-87.739548
19763.6719	-87.844437
19766.6016	-87.983963
19769.5312	-88.151672
19772.4609	-88.326965
19775.3906	-88.537254
19778.3203	-88.687141
19781.2500	-88.842262
19784.1797	-89.082787
19787.1094	-89.277542
19790.0391	-89.442131
19792.9688	-89.658035
19795.8984	-89.879471
19798.8281	-90.116623
19801.7578	-90.385399
19804.6875	-90.652580
19807.6172	-90.909576
19810.5469	-91.096931
19813.4766	-91.371086
19816.4062	-91.805855
19819.3359	-92.143669
19822.2656	-92.393623
19825.1953	-92.761200
19828.1250	-93.233330
19831.0547	-93.737602
19833.9844	-94.203804
19836.9141	-94.729675
19839.8438	-95.384567
19842.7734	-95.939049
19845.7031	-96.412727
19848.6328	-96.994507
19851.5625	-97.756760
19854.4922	-98.611130
19857.4219	-99.644112
19860.3516	-101.242043
19863.2812	-103.092430
19866.2109	-104.478836
19869.1406	-106.072006
19872.0703	-109.751442
19875.0000	-115.798569
19877.9297	-118.740822
19880.8594	-114.216461
19883.7891	-109.991585
19886.7188	-106.845039
19889.6484	-103.968369
19892.5781	-101.569740
19895.5078	-99.828812
19898.4375	-98.448059
19901.3672	-97.121422
19904.2969	-95.939537
19907.2266	-94.880768
19910.1562	-93.896530
19913.0859	-93.024956
19916.0156	-92.254791
19918.9453	-91.468941
19921.8750	-90.665306
19924.8047	-89.950821
19927.7344	-89.233635
19930.6641	-88.537575
19933.5938	-87.959747
19936.5234	-87.418541
19939.4531	-86.840385
19942.3828	-86.262383
19945.3125	-85.750198
19948.2422	-85.217339
19951.1719	-84.631332
19954.1016	-84.060989
19957.0312	-83.564720
19959.9609	-83.085030
19962.8906	-82.577065
19965.8203	-82.083824
19968.7500	-81.580688
19971.6797	-81.084358
19974.6094	-80.616341
19977.5391	-80.153969
19980.4688	-79.701782
19983.3984	-79.256508
19986.3281	-78.788071
19989.2578	-78.296715
19992.1875	-77.825821
19995.1172	-77.355194
19998.0469	-76.853996
20000.9766	-76.362854
20003.9062	-75.885696
20006.8359	-75.406952
20009.7656	-74.932961
20012.6953	-74.446449
20015.6250	-73.926941
20018.5547	-73.419380
20021.4844	-72.927132
20024.4141	-72.404686
20027.3438	-71.846985
20030.2734	-71.269531
20033.2031	-70.686195
20036.1328	-70.090805
20039.0625	-69.467430
20041.9922	-68.832726
20044.9219	-68.194832
20047.8516	-67.518295
20050.7812	-66.805206
20053.7109	-66.078308
20056.6406	-65.314468
20059.5703	-64.485306
20062.5000	-63.583626
20065.4297	-62.623898
20068.3594	-61.601913
20071.2891	-60.493343
20074.2188	-59.276867
20077.1484	-57.944252
20080.0781	-56.500111
20083.0078	-54.926304
20085.9375	-53.286762
20088.8672	-51.839493
20091.7969	-50.918110
20094.7266	-50.789425
20097.6562	-51.456108
20100.5859	-52.660072
20103.5156	-54.081966
20106.4453	-55.469135
20109.3750	-56.715393
20112.3047	-57.821869
20115.2344	-58.791885
20118.1641	-59.670029
20121.0938	-60.454811
20124.0234	-61.160458
20126.9531	-61.816235
20129.8828	-62.419861
20132.8125	-62.968300
20135.7422	-63.467648
20138.6719	-63.932602
20141.6016	-64.369308
20144.5312	-64.769218
20147.4609	-65.138809
20150.3906	-65.486725
20153.3203	-65.826958
20156.2500	-66.156250
20159.1797	-66.461235
20162.1094	-66.734589
20165.0391	-66.991623
20167.9688	-67.236610
20170.8984	-67.472496
20173.8281	-67.713737
20176.7578	-67.939400
20179.6875	-68.149391
20182.6172	-68.352554
20185.5469	-68.548050
20188.4766	-68.749039
20191.4062	-68.937790
20194.3359	-69.110863
20197.2656	-69.277763
20200.1953	-69.436516
20203.1250	-69.594368
20206.0547	-69.745903
20208.9844	-69.893379
20211.9141	-70.037827
20214.8438	-70.174446
20217.7734	-70.317482
20220.7031	-70.462975
20223.6328	-70.585533
20226.5625	-70.689812
20229.4922	-70.812149
20232.4219	-70.936226
20235.3516	-71.030716
20238.2812	-71.124260
20241.2109	-71.238350
20244.1406	-71.362572
20247.0703	-71.473984
20250.0000	-71.570152
20252.9297	-71.670731
20255.8594	-71.760612
20258.7891	-71.838364
20261.7188	-71.923882
20264.6484	-72.005943
20267.5781	-72.078262
20270.5078	-72.154778
20273.4375	-72.248154
20276.3672	-72.333977
20279.2969	-72.412865
20282.2266	-72.500702
20285.1562	-72.572037
20288.0859	-72.630730
20291.0156	-72.688507
20293.9453	-72.749718
20296.8750	-72.821175
20299.8047	-72.895164
20302.7344	-72.969063
20305.6641	-73.028938
20308.5938	-73.067726
20311.5234	-73.124084
20314.4531	-73.198860
20317.3828	-73.253059
20320.3125	-73.305618
20323.2422	-73.369209
20326.1719	-73.432983
20329.1016	-73.493896
20332.0312	-73.537155
20334.9609	-73.597282
20337.8906	-73.675529
20340.8203	-73.709396
20343.7500	-73.724266
20346.6797	-73.762344
20349.6094	-73.827377
20352.5391	-73.897827
20355.4688	-73.954025
20358.3984	-73.992874
20361.3281	-74.022118
20364.2578	-74.081093
20367.1875	-74.149788
20370.1172	-74.203171
20373.0469	-74.236008
20375.9766	-74.260681
20378.9062	-74.305679
20381.8359	-74.357719
20384.7656	-74.399536
20387.6953	-74.435646
20390.6250	-74.490372
20393.5547	-74.539635
20396.4844	-74.566223
20399.4141	-74.599327
20402.3438	-74.635681
20405.2734	-74.656792
20408.2031	-74.676392
20411.1328	-74.722084
20414.0625	-74.790176
20416.9922	-74.838242
20419.9219	-74.838730
20422.8516	-74.844574
20425.7812	-74.886871
20428.7109	-74.923233
20431.6406	-74.941536
20434.5703	-74.958611
20437.5000	-74.981201
20440.4297	-75.011353
20443.3594	-75.055183
20446.2891	-75.090576
20449.2188	-75.103821
20452.1484	-75.136475
20455.0781	-75.170204
20458.0078	-75.191910
20460.9375	-75.222672
20463.8672	-75.240623
20466.7969	-75.250885
20469.7266	-75.277008
20472.6562	-75.324791
20475.5859	-75.371445
20478.5156	-75.398140
20481.4453	-75.409019
20484.3750	-75.425156
20487.3047	-75.461494
20490.2344	-75.498886
20493.1641	-75.531464
20496.0938	-75.565987
20499.0234	-75.575150
20501.9531	-75.565506
20504.8828	-75.584427
20507.8125	-75.628853
20510.7422	-75.667755
20513.6719	-75.687523
20516.6016	-75.708061
20519.5312	-75.720673
20522.4609	-75.724998
20525.3906	-75.755035
20528.3203	-75.788422
20531.2500	-75.820442
20534.1797	-75.864479
20537.1094	-75.897552
20540.0391	-75.907372
20542.9688	-75.922569
20545.8984	-75.961456
20548.8281	-75.991180
20551.7578	-75.991936
20554.6875	-75.983978
20557.6172	-76.012146
20560.5469	-76.053825
20563.4766	-76.077225
20566.4062	-76.102417
20569.3359	-76.125786
20572.2656	-76.138435
20575.1953	-76.143425
20578.1250	-76.153511
20581.0547	-76.174080
20583.9844	-76.192169
20586.9141	-76.197777
20589.8438	-76.201088
20592.7734	-76.216057
20595.7031	-76.223480
20598.6328	-76.248566
20601.5625	-76.300232
20604.4922	-76.324234
20607.4219	-76.331146
20610.3516	-76.335205
20613.2812	-76.344406
20616.2109	-76.365791
20619.1406	-76.375824
20622.0703	-76.381310
20625.0000	-76.386559
20627.9297	-76.400810
20630.8594	-76.421494
20633.7891	-76.432724
20636.7188	-76.446190
20639.6484	-76.467796
20642.5781	-76.504936
20645.5078	-76.549637
20648.4375	-76.542442
20651.3672	-76.522659
20654.2969	-76.561409
20657.2266	-76.592140
20660.1562	-76.587944
20663.0859	-76.600838
20666.0156	-76.617691
20668.9453	-76.610176
20671.8750	-76.609818
20674.8047	-76.633469
20677.7344	-76.665985
20680.6641	-76.690323
20683.5938	-76.708664
20686.5234	-76.740715
20689.4531	-76.764053
20692.3828	-76.769318
20695.3125	-76.786980
20698.2422	-76.796890
20701.1719	-76.778999
20704.1016	-76.779381
20707.0312	-76.803497
20709.9609	-76.833992
20712.8906	-76.855507
20715.8203	-76.841759
20718.7500	-76.837029
20721.6797	-76.856956
20724.6094	-76.873962
20727.5391	-76.890373
20730.4688	-76.894943
20733.3984	-76.902878
20736.3281	-76.931953
20739.2578	-76.952522
20742.1875	-76.955132
20745.1172	-76.957642
20748.0469	-76.966385
20750.9766	-76.980667
20753.9062	-76.979462
20756.8359	-76.970970
20759.7656	-76.976250
20762.6953	-76.999039
20765.6250	-77.037003
20768.5547	-77.059525
20771.4844	-77.065636
20774.4141	-77.084915
20777.3438	-77.120354
20780.2734	-77.130814
20783.2031	-77.110329
20786.1328	-77.126335
20789.0625	-77.156113
20791.9922	-77.169868
20794.9219	-77.205254
20797.8516	-77.225883
20800.7812	-77.209663
20803.7109	-77.189453
20806.6406	-77.195702
20809.5703	-77.234734
20812.5000	-77.267441
20815.4297	-77.295532
20818.3594	-77.318871
20821.2891	-77.314949
20824.2188	-77.316238
20827.1484	-77.337013
20830.0781	-77.332649
20833.0078	-77.314903
20835.9375	-77.317604
20838.8672	-77.346855
20841.7969	-77.368835
20844.7266	-77.364113
20847.6562	-77.378403
20850.5859	-77.383858
20853.5156	-77.360069
20856.4453	-77.353172
20859.3750	-77.366165
20862.3047	-77.406952
20865.2344	-77.440254
20868.1641	-77.430832
20871.0938	-77.416534
20874.0234	-77.421806
20876.9531	-77.418839
20879.8828	-77.421135
20882.8125	-77.448677
20885.7422	-77.472328
20888.6719	-77.477341
20891.6016	-77.481483
20894.5312	-77.501877
20897.4609	-77.523399
20900.3906	-77.509605
20903.3203	-77.497955
20906.2500	-77.525009
20909.1797	-77.548500
20912.1094	-77.556084
20915.0391	-77.554237
20917.9688	-77.558311
20920.8984	-77.579521
20923.8281	-77.589302
20926.7578	-77.588943
20929.6875	-77.600861
20932.6172	-77.623283
20935.5469	-77.639977
20938.4766	-77.638298
20941.4062	-77.658218
20944.3359	-77.702164
20947.2656	-77.714363
20950.1953	-77.690353
20953.1250	-77.658478
20956.0547	-77.642448
20958.9844	-77.658592
20961.9141	-77.684250
20964.8438	-77.693687
20967.7734	-77.692772
20970.7031	-77.693016
20973.6328	-77.705322
20976.5625	-77.720657
20979.4922	-77.730057
20982.4219	-77.753723
20985.3516	-77.771248
20988.2812	-77.743996
20991.2109	-77.728516
20994.1406	-77.767784
20997.0703	-77.800140
21000.0000	-77.814857
21002.9297	-77.818504
21005.8594	-77.810783
21008.7891	-77.811966
21011.7188	-77.801003
21014.6484	-77.805046
21017.5781	-77.836632
21020.5078	-77.864502
21023.4375	-77.885590
21026.3672	-77.877991
21029.2969	-77.868126
21032.2266	-77.885231
21035.1562	-77.903160
21038.0859	-77.911568
21041.0156	-77.920334
21043.9453	-77.934830
21046.8750	-77.953728
21049.8047	-77.946014
21052.7344	-77.930977
21055.6641	-77.958435
21058.5938	-77.987869
21061.5234	-77.984062
21064.4531	-77.992958
21067.3828	-78.030579
21070.3125	-78.032326
21073.2422	-78.025604
21076.1719	-78.053581
21079.1016	-78.070839
21082.0312	-78.084641
21084.9609	-78.099960
21087.8906	-78.101120
21090.8203	-78.087624
21093.7500	-78.088127
21096.6797	-78.095390
21099.6094	-78.096397
21102.5391	-78.092392
21105.4688	-78.071259
21108.3984	-78.072365
21111.3281	-78.096252
21114.2578	-78.117210
21117.1875	-78.120369
21120.1172	-78.094803
21123.0469	-78.092575
21125.9766	-78.122917
21128.9062	-78.125061
21131.8359	-78.101936
21134.7656	-78.098328
21137.6953	-78.112747
21140.6250	-78.120682
21143.5547	-78.102356
21146.4844	-78.101341
21149.4141	-78.141647
21152.3438	-78.178368
21155.2734	-78.204208
21158.2031	-78.200699
21161.1328	-78.175148
21164.0625	-78.170769
21166.9922	-78.171272
21169.9219	-78.167953
21172.8516	-78.182533
21175.7812	-78.181946
21178.7109	-78.166977
21181.6406	-78.188789
21184.5703	-78.221603
21187.5000	-78.237068
21190.4297	-78.242104
21193.3594	-78.235771
21196.2891	-78.258842
21199.2188	-78.279922
21202.1484	-78.258698
21205.0781	-78.249184
21208.0078	-78.262344
21210.9375	-78.287804
21213.8672	-78.296555
21216.7969	-78.293915
21219.7266	-78.315208
21222.6562	-78.336906
21225.5859	-78.354187
21228.5156	-78.363770
21231.4453	-78.343620
21234.3750	-78.342735
21237.3047	-78.365509
21240.2344	-78.365067
21243.1641	-78.348976
21246.0938	-78.352959
21249.0234	-78.388565
21251.9531	-78.407326
21254.8828	-78.434990
21257.8125	-78.475998
21260.7422	-78.478752
21263.6719	-78.459442
21266.6016	-78.446175
21269.5312	-78.449455
21272.4609	-78.453926
21275.3906	-78.463654
21278.3203	-78.464890
21281.2500	-78.446777
21284.1797	-78.433823
21287.1094	-78.435623
21290.0391	-78.456917
21292.9688	-78.490013
21295.8984	-78.494278
21298.8281	-78.467094
21301.7578	-78.456726
21304.6875	-78.459663
21307.6172	-78.473335
21310.5469	-78.501099
21313.4766	-78.497711
21316.4062	-78.481346
21319.3359	-78.493645
21322.2656	-78.507446
21325.1953	-78.502007
21328.1250	-78.488899
21331.0547	-78.480835
21333.9844	-78.502510
21336.9141	-78.535301
21339.8438	-78.543434
21342.7734	-78.534889
21345.7031	-78.544357
21348.6328	-78.577957
21351.5625	-78.601021
21354.4922	-78.595840
21357.4219	-78.564674
21360.3516	-78.537048
21363.2812	-78.532829
21366.2109	-78.556618
21369.1406	-78.596214
21372.0703	-78.619469
21375.0000	-78.617462
21377.9297	-78.613037
21380.8594	-78.605965
21383.7891	-78.594810
21386.7188	-78.612595
21389.6484	-78.644188
21392.5781	-78.650864
21395.5078	-78.645576
21398.4375	-78.661209
21401.3672	-78.681450
21404.2969	-78.683632
21407.2266	-78.671707
21410.1562	-78.661812
21413.0859	-78.672646
21416.0156	-78.699783
21418.9453	-78.723022
21421.8750	-78.719543
21424.8047	-78.710510
21427.7344	-78.723511
21430.6641	-78.720741
21433.5938	-78.694946
21436.5234	-78.719742
21439.4531	-78.769547
21442.3828	-78.788055
21445.3125	-78.792404
21448.2422	-78.758705
21451.1719	-78.736992
21454.1016	-78.769547
21457.0312	-78.781860
21459.9609	-78.766182
21462.8906	-78.759094
21465.8203	-78.778519
21468.7500	-78.785179
21471.6797	-78.768372
21474.6094	-78.779663
21477.5391	-78.789330
21480.4688	-78.760567
21483.3984	-78.761810
21486.3281	-78.778557
21489.2578	-78.773438
21492.1875	-78.775604
21495.1172	-78.779114
21498.0469	-78.788963
21500.9766	-78.799469
21503.9062	-78.814415
21506.8359	-78.835083
21509.7656	-78.841125
21512.6953	-78.837372
21515.6250	-78.837456
21518.5547	-78.846611
21521.4844	-78.835495
21524.4141	-78.825195
21527.3438	-78.849838
21530.2734	-78.847519
21533.2031	-78.829773
21536.1328	-78.844734
21539.0625	-78.855324
21541.9922	-78.861641
21544.9219	-78.870377
21547.8516	-78.884346
21550.7812	-78.890259
21553.7109	-78.884712
21556.6406	-78.891441
21559.5703	-78.882904
21562.5000	-78.884796
21565.4297	-78.909790
21568.3594	-78.926163
21571.2891	-78.938271
21574.2188	-78.950867
21577.1484	-78.942917
21580.0781	-78.925797
21583.0078	-78.928116
21585.9375	-78.924202
21588.8672	-78.910904
21591.7969	-78.909462
21594.7266	-78.916954
21597.6562	-78.939575
21600.5859	-78.966507
21603.5156	-78.960129
21606.4453	-78.937729
21609.3750	-78.944298
21612.3047	-78.965897
21615.2344	-78.966087
21618.1641	-78.963539
21621.0938	-78.983727
21624.0234	-79.011101
21626.9531	-79.021584
21629.8828	-79.014061
21632.8125	-79.027748
21635.7422	-79.051086
21638.6719	-79.043236
21641.6016	-79.048180
21644.5312	-79.073097
21647.4609	-79.043159
21650.3906	-79.014503
21653.3203	-79.050552
21656.2500	-79.083801
21659.1797	-79.077873
21662.1094	-79.054619
21665.0391	-79.049728
21667.9688	-79.069801
21670.8984	-79.096817
21673.8281	-79.120750
21676.7578	-79.146858
21679.6875	-79.160240
21682.6172	-79.154167
21685.5469	-79.145180
21688.4766	-79.123383
21691.4062	-79.125900
21694.3359	-79.166130
21697.2656	-79.171112
21700.1953	-79.153702
21703.1250	-79.167679
21706.0547	-79.148827
21708.9844	-79.118370
21711.9141	-79.134422
21714.8438	-79.141403
21717.7734	-79.141899
21720.7031	-79.149345
21723.6328	-79.154778
21726.5625	-79.164772
21729.4922	-79.177231
21732.4219	-79.193222
21735.3516	-79.181938
21738.2812	-79.163452
21741.2109	-79.171005
21744.1406	-79.192299
21747.0703	-79.179070
21750.0000	-79.146858
21752.9297	-79.173317
21755.8594	-79.194962
21758.7891	-79.190361
21761.7188	-79.209724
21764.6484	-79.216499
21767.5781	-79.194725
21770.5078	-79.188004
21773.4375	-79.211983
21776.3672	-79.234650
21779.2969	-79.233109
21782.2266	-79.208145
21785.1562	-79.205811
21788.0859	-79.246750
21791.0156	-79.265755
21793.9453	-79.251106
21796.8750	-79.236473
21799.8047	-79.226006
21802.7344	-79.226112
21805.6641	-79.239189
21808.5938	-79.263260
21811.5234	-79.260254
21814.4531	-79.238388
21817.3828	-79.244957
21820.3125	-79.259750
21823.2422	-79.264412
21826.1719	-79.280411
21829.1016	-79.290962
21832.0312	-79.273132
21834.9609	-79.280884
21837.8906	-79.300247
21840.8203	-79.280151
21843.7500	-79.275826
21846.6797	-79.297981
21849.6094	-79.318253
21852.5391	-79.335739
21855.4688	-79.321640
21858.3984	-79.291145
21861.3281	-79.292160
21864.2578	-79.333595
21867.1875	-79.344704
21870.1172	-79.321960
21873.0469	-79.331215
21875.9766	-79.341118
21878.9062	-79.337540
21881.8359	-79.345825
21884.7656	-79.355568
21887.6953	-79.343887
21890.6250	-79.346664
21893.5547	-79.362061
21896.4844	-79.380333
21899.4141	-79.419342
21902.3438	-79.425240
21905.2734	-79.414772
21908.2031	-79.411201
21911.1328	-79.411560
21914.0625	-79.413643
21916.9922	-79.419701
21919.9219	-79.445480
21922.8516	-79.461212
21925.7812	-79.456223
21928.7109	-79.447571
21931.6406	-79.450737
21934.5703	-79.454979
21937.5000	-79.468590
21940.4297	-79.497322
21943.3594	-79.506981
21946.2891	-79.490601
21949.2188	-79.468292
21952.1484	-79.470459
21955.0781	-79.494133
21958.0078	-79.512756
21960.9375	-79.520378
21963.8672	-79.531540
21966.7969	-79.525032
21969.7266	-79.487694
21972.6562	-79.463364
21975.5859	-79.495422
21978.5156	-79.523659
21981.4453	-79.507378
21984.3750	-79.505302
21987.3047	-79.509903
21990.2344	-79.522430
21993.1641	-79.533752
21996.0938	-79.519981
21999.0234	-79.534492
22001.9531	-79.553604
22004.8828	-79.529678
