;Freq(Hz)	Relative Amplitude (dB): Left
18424.8047	-88.216248
18427.7344	-88.274925
18430.6641	-88.350845
18433.5938	-88.350456
18436.5234	-88.316483
18439.4531	-88.312668
18442.3828	-88.302147
18445.3125	-88.296432
18448.2422	-88.319901
18451.1719	-88.313187
18454.1016	-88.347260
18457.0312	-88.408440
18459.9609	-88.432480
18462.8906	-88.471718
18465.8203	-88.468895
18468.7500	-88.417053
18471.6797	-88.413841
18474.6094	-88.448914
18477.5391	-88.471840
18480.4688	-88.488930
18483.3984	-88.477119
18486.3281	-88.475891
18489.2578	-88.499886
18492.1875	-88.513794
18495.1172	-88.520729
18498.0469	-88.493988
18500.9766	-88.484612
18503.9062	-88.552200
18506.8359	-88.615562
18509.7656	-88.593391
18512.6953	-88.546692
18515.6250	-88.506088
18518.5547	-88.524971
18521.4844	-88.549744
18524.4141	-88.585625
18527.3438	-88.629562
18530.2734	-88.642448
18533.2031	-88.608307
18536.1328	-88.581902
18539.0625	-88.561783
18541.9922	-88.559135
18544.9219	-88.575470
18547.8516	-88.627823
18550.7812	-88.705635
18553.7109	-88.702003
18556.6406	-88.629906
18559.5703	-88.595993
18562.5000	-88.615364
18565.4297	-88.611069
18568.3594	-88.595596
18571.2891	-88.628815
18574.2188	-88.666306
18577.1484	-88.657036
18580.0781	-88.636612
18583.0078	-88.647949
18585.9375	-88.695854
18588.8672	-88.759827
18591.7969	-88.780594
18594.7266	-88.754433
18597.6562	-88.756615
18600.5859	-88.728661
18603.5156	-88.648964
18606.4453	-88.699997
18609.3750	-88.818886
18612.3047	-88.838585
18615.2344	-88.796349
18618.1641	-88.777985
18621.0938	-88.824768
18624.0234	-88.882927
18626.9531	-88.873749
18629.8828	-88.827438
18632.8125	-88.823029
18635.7422	-88.868515
18638.6719	-88.918549
18641.6016	-88.931259
18644.5312	-88.952522
18647.4609	-88.975861
18650.3906	-88.977921
18653.3203	-89.001511
18656.2500	-89.022430
18659.1797	-88.990143
18662.1094	-89.007393
18665.0391	-89.067986
18667.9688	-89.057503
18670.8984	-89.068275
18673.8281	-89.082214
18676.7578	-89.091080
18679.6875	-89.135262
18682.6172	-89.112167
18685.5469	-89.073227
18688.4766	-89.081894
18691.4062	-89.082565
18694.3359	-89.114059
18697.2656	-89.077423
18700.1953	-89.023354
18703.1250	-89.099709
18706.0547	-89.214302
18708.9844	-89.203949
18711.9141	-89.100815
18714.8438	-89.089470
18717.7734	-89.193634
18720.7031	-89.240341
18723.6328	-89.201927
18726.5625	-89.176544
18729.4922	-89.182617
18732.4219	-89.249817
18735.3516	-89.325012
18738.2812	-89.291985
18741.2109	-89.246704
18744.1406	-89.261215
18747.0703	-89.263802
18750.0000	-89.300049
18752.9297	-89.397743
18755.8594	-89.399506
18758.7891	-89.314064
18761.7188	-89.310532
18764.6484	-89.357346
18767.5781	-89.373260
18770.5078	-89.381401
18773.4375	-89.403824
18776.3672	-89.479347
18779.2969	-89.527557
18782.2266	-89.473694
18785.1562	-89.466652
18788.0859	-89.507278
18791.0156	-89.502914
18793.9453	-89.491463
18796.8750	-89.509834
18799.8047	-89.489517
18802.7344	-89.505623
18805.6641	-89.611259
18808.5938	-89.657684
18811.5234	-89.610580
18814.4531	-89.598717
18817.3828	-89.626602
18820.3125	-89.655334
18823.2422	-89.661049
18826.1719	-89.664169
18829.1016	-89.679390
18832.0312	-89.706589
18834.9609	-89.762207
18837.8906	-89.811378
18840.8203	-89.823158
18843.7500	-89.820068
18846.6797	-89.831512
18849.6094	-89.904182
18852.5391	-89.950661
18855.4688	-89.956261
18858.3984	-89.960541
18861.3281	-89.932312
18864.2578	-89.948898
18867.1875	-90.018578
18870.1172	-90.052788
18873.0469	-90.070427
18875.9766	-90.067650
18878.9062	-90.051224
18881.8359	-90.078285
18884.7656	-90.084114
18887.6953	-90.084435
18890.6250	-90.146202
18893.5547	-90.221138
18896.4844	-90.283424
18899.4141	-90.328659
18902.3438	-90.262787
18905.2734	-90.230293
18908.2031	-90.361755
18911.1328	-90.449310
18914.0625	-90.426735
18916.9922	-90.428062
18919.9219	-90.478798
18922.8516	-90.493919
18925.7812	-90.523346
18928.7109	-90.549004
18931.6406	-90.571686
18934.5703	-90.661819
18937.5000	-90.772873
18940.4297	-90.781082
18943.3594	-90.743523
18946.2891	-90.758659
18949.2188	-90.834496
18952.1484	-90.970306
18955.0781	-91.000870
18958.0078	-90.918785
18960.9375	-90.929535
18963.8672	-91.028275
18966.7969	-91.059586
18969.7266	-91.050415
18972.6562	-91.111282
18975.5859	-91.200691
18978.5156	-91.240875
18981.4453	-91.251312
18984.3750	-91.269920
18987.3047	-91.313499
18990.2344	-91.380020
18993.1641	-91.452484
18996.0938	-91.510750
18999.0234	-91.586021
19001.9531	-91.704422
19004.8828	-91.753944
19007.8125	-91.812874
19010.7422	-91.907028
19013.6719	-91.905876
19016.6016	-91.905823
19019.5312	-91.996307
19022.4609	-92.118301
19025.3906	-92.185181
19028.3203	-92.240623
19031.2500	-92.338753
19034.1797	-92.369820
19037.1094	-92.418327
19040.0391	-92.634315
19042.9688	-92.817253
19045.8984	-92.908371
19048.8281	-93.020706
19051.7578	-93.066284
19054.6875	-93.184486
19057.6172	-93.396072
19060.5469	-93.528923
19063.4766	-93.618958
19066.4062	-93.739418
19069.3359	-93.906166
19072.2656	-94.035316
19075.1953	-94.229721
19078.1250	-94.441414
19081.0547	-94.596344
19083.9844	-94.811340
19086.9141	-94.998344
19089.8438	-95.221001
19092.7734	-95.549622
19095.7031	-95.880501
19098.6328	-96.097755
19101.5625	-96.432243
19104.4922	-97.098442
19107.4219	-97.646423
19110.3516	-97.981949
19113.2812	-98.379478
19116.2109	-98.861938
19119.1406	-99.280403
19122.0703	-99.733871
19125.0000	-100.479118
19127.9297	-101.464043
19130.8594	-102.331490
19133.7891	-103.178680
19136.7188	-104.518196
19139.6484	-106.504211
19142.5781	-109.709145
19145.5078	-116.405647
19148.4375	-118.420555
19151.3672	-111.942848
19154.2969	-108.196503
19157.2266	-104.987480
19160.1562	-101.856987
19163.0859	-99.376511
19166.0156	-97.464493
19168.9453	-95.760269
19171.8750	-94.089371
19174.8047	-92.560822
19177.7344	-91.169243
19180.6641	-89.772011
19183.5938	-88.361053
19186.5234	-86.973640
19189.4531	-85.552292
19192.3828	-84.092094
19195.3125	-82.607117
19198.2422	-81.063217
19201.1719	-79.406342
19204.1016	-77.643005
19207.0312	-75.705956
19209.9609	-73.546913
19212.8906	-71.265610
19215.8203	-69.194809
19218.7500	-67.908516
19221.6797	-67.923897
19224.6094	-69.007004
19227.5391	-70.471741
19230.4688	-72.026360
19233.3984	-73.401390
19236.3281	-74.530663
19239.2578	-75.498238
19242.1875	-76.359230
19245.1172	-77.105713
19248.0469	-77.748581
19250.9766	-78.345947
19253.9062	-78.865341
19256.8359	-79.273743
19259.7656	-79.652222
19262.6953	-80.034462
19265.6250	-80.402748
19268.5547	-80.737724
19271.4844	-81.025154
19274.4141	-81.290543
19277.3438	-81.536819
19280.2734	-81.767159
19283.2031	-82.005730
19286.1328	-82.220261
19289.0625	-82.413841
19291.9922	-82.588364
19294.9219	-82.725334
19297.8516	-82.880585
19300.7812	-83.013741
19303.7109	-83.127220
19306.6406	-83.267265
19309.5703	-83.409653
19312.5000	-83.542549
19315.4297	-83.675499
19318.3594	-83.833138
19321.2891	-83.953087
19324.2188	-84.002007
19327.1484	-84.061195
19330.0781	-84.179489
19333.0078	-84.339104
19335.9375	-84.472252
19338.8672	-84.559341
19341.7969	-84.618919
19344.7266	-84.685883
19347.6562	-84.811531
19350.5859	-84.966827
19353.5156	-85.048424
19356.4453	-85.049400
19359.3750	-85.055305
19362.3047	-85.089279
19365.2344	-85.170441
19368.1641	-85.241554
19371.0938	-85.283424
19374.0234	-85.320992
19376.9531	-85.409973
19379.8828	-85.489868
19382.8125	-85.498962
19385.7422	-85.504570
19388.6719	-85.552620
19391.6016	-85.631248
19394.5312	-85.715836
19397.4609	-85.760895
19400.3906	-85.818184
19403.3203	-85.853310
19406.2500	-85.842789
19409.1797	-85.895172
19412.1094	-85.948639
19415.0391	-85.973068
19417.9688	-85.988632
19420.8984	-86.006065
19423.8281	-86.089394
19426.7578	-86.156998
19429.6875	-86.157318
19432.6172	-86.212769
19435.5469	-86.253159
19438.4766	-86.219017
19441.4062	-86.240982
19444.3359	-86.293106
19447.2656	-86.353798
19450.1953	-86.370323
19453.1250	-86.336060
19456.0547	-86.384300
19458.9844	-86.415031
19461.9141	-86.428200
19464.8438	-86.520370
19467.7734	-86.558548
19470.7031	-86.543106
19473.6328	-86.604897
19476.5625	-86.646698
19479.4922	-86.601044
19482.4219	-86.627144
19485.3516	-86.703156
19488.2812	-86.731804
19491.2109	-86.744255
19494.1406	-86.772926
19497.0703	-86.806206
19500.0000	-86.837296
19502.9297	-86.862206
19505.8594	-86.891090
19508.7891	-86.942986
19511.7188	-86.959595
19514.6484	-86.933380
19517.5781	-86.939445
19520.5078	-86.968651
19523.4375	-86.996117
19526.3672	-87.035599
19529.2969	-87.060158
19532.2266	-87.096367
19535.1562	-87.136414
19538.0859	-87.130249
19541.0156	-87.134033
19543.9453	-87.160469
19546.8750	-87.147720
19549.8047	-87.156059
19552.7344	-87.234123
19555.6641	-87.249619
19558.5938	-87.227028
19561.5234	-87.255402
19564.4531	-87.289093
19567.3828	-87.321968
19570.3125	-87.332977
19573.2422	-87.274017
19576.1719	-87.237350
19579.1016	-87.294151
19582.0312	-87.336647
19584.9609	-87.347984
19587.8906	-87.347786
19590.8203	-87.337700
19593.7500	-87.335365
19596.6797	-87.280663
19599.6094	-87.277534
19602.5391	-87.360359
19605.4688	-87.397781
19608.3984	-87.410828
19611.3281	-87.405678
19614.2578	-87.388184
19617.1875	-87.398552
19620.1172	-87.432899
19623.0469	-87.470741
19625.9766	-87.477608
19628.9062	-87.501602
19631.8359	-87.543358
19634.7656	-87.564911
19637.6953	-87.599060
19640.6250	-87.606056
19643.5547	-87.582336
19646.4844	-87.601707
19649.4141	-87.658318
19652.3438	-87.726204
19655.2734	-87.738716
19658.2031	-87.662582
19661.1328	-87.642761
19664.0625	-87.666382
19666.9922	-87.630920
19669.9219	-87.603058
19672.8516	-87.625908
19675.7812	-87.669212
19678.7109	-87.721817
19681.6406	-87.771828
19684.5703	-87.787460
19687.5000	-87.782860
19690.4297	-87.751610
19693.3594	-87.735603
19696.2891	-87.781982
19699.2188	-87.800690
19702.1484	-87.831467
19705.0781	-87.834961
19708.0078	-87.778046
19710.9375	-87.816040
19713.8672	-87.881752
19716.7969	-87.825256
19719.7266	-87.763092
19722.6562	-87.802299
19725.5859	-87.847427
19728.5156	-87.868851
19731.4453	-87.892487
19734.3750	-87.937485
19737.3047	-87.968971
19740.2344	-87.958275
19743.1641	-87.942596
19746.0938	-87.936005
19749.0234	-87.953011
19751.9531	-87.935890
19754.8828	-87.908798
19757.8125	-87.940529
19760.7422	-87.946411
19763.6719	-87.963333
19766.6016	-87.999229
19769.5312	-88.020462
19772.4609	-88.074570
19775.3906	-88.103943
19778.3203	-88.099243
19781.2500	-88.095924
19784.1797	-88.099480
19787.1094	-88.147919
19790.0391	-88.194717
19792.9688	-88.174538
19795.8984	-88.190552
19798.8281	-88.227951
19801.7578	-88.229897
19804.6875	-88.234520
19807.6172	-88.248711
19810.5469	-88.211517
19813.4766	-88.178268
19816.4062	-88.183502
19819.3359	-88.223564
19822.2656	-88.228981
19825.1953	-88.209343
19828.1250	-88.227211
19831.0547	-88.281166
19833.9844	-88.299049
19836.9141	-88.237755
19839.8438	-88.188377
19842.7734	-88.234322
19845.7031	-88.303024
19848.6328	-88.287239
19851.5625	-88.245102
19854.4922	-88.247772
19857.4219	-88.280022
19860.3516	-88.324753
19863.2812	-88.325302
19866.2109	-88.251953
19869.1406	-88.214783
19872.0703	-88.242035
19875.0000	-88.284546
19877.9297	-88.336746
19880.8594	-88.382370
19883.7891	-88.385902
19886.7188	-88.350807
19889.6484	-88.327660
19892.5781	-88.334869
19895.5078	-88.331635
19898.4375	-88.315887
19901.3672	-88.360405
19904.2969	-88.405304
19907.2266	-88.407425
19910.1562	-88.406380
19913.0859	-88.381470
19916.0156	-88.403809
19918.9453	-88.459175
19921.8750	-88.442551
19924.8047	-88.417282
19927.7344	-88.429108
19930.6641	-88.431389
19933.5938	-88.447014
19936.5234	-88.458519
19939.4531	-88.443832
19942.3828	-88.443199
19945.3125	-88.432129
19948.2422	-88.388321
19951.1719	-88.375648
19954.1016	-88.408058
19957.0312	-88.465919
19959.9609	-88.518799
19962.8906	-88.520164
19965.8203	-88.501358
19968.7500	-88.529663
19971.6797	-88.580750
19974.6094	-88.598511
19977.5391	-88.574493
19980.4688	-88.546928
19983.3984	-88.544746
19986.3281	-88.525887
19989.2578	-88.495384
19992.1875	-88.487694
19995.1172	-88.515839
19998.0469	-88.595810
20000.9766	-88.702248
20003.9062	-88.714417
20006.8359	-88.633171
20009.7656	-88.567856
20012.6953	-88.533073
20015.6250	-88.554459
20018.5547	-88.587234
20021.4844	-88.606956
20024.4141	-88.660637
20027.3438	-88.696434
20030.2734	-88.729912
20033.2031	-88.722252
20036.1328	-88.666817
20039.0625	-88.688072
20041.9922	-88.720589
20044.9219	-88.720421
20047.8516	-88.705276
20050.7812	-88.662094
20053.7109	-88.669868
20056.6406	-88.743530
20059.5703	-88.713768
20062.5000	-88.698265
20065.4297	-88.740013
20068.3594	-88.793617
20071.2891	-88.761505
20074.2188	-88.723534
20077.1484	-88.714142
20080.0781	-88.712418
20083.0078	-88.756561
20085.9375	-88.782745
20088.8672	-88.763832
20091.7969	-88.739792
20094.7266	-88.721382
20097.6562	-88.711349
20100.5859	-88.725769
20103.5156	-88.751724
20106.4453	-88.796013
20109.3750	-88.834320
20112.3047	-88.840843
20115.2344	-88.809387
20118.1641	-88.795914
20121.0938	-88.860741
20124.0234	-88.874184
20126.9531	-88.788780
20129.8828	-88.732010
20132.8125	-88.755852
20135.7422	-88.785622
20138.6719	-88.771263
20141.6016	-88.786133
20144.5312	-88.799942
20147.4609	-88.777031
20150.3906	-88.789009
20153.3203	-88.797028
20156.2500	-88.802048
20159.1797	-88.864662
20162.1094	-88.927498
20165.0391	-88.924660
20167.9688	-88.915298
20170.8984	-88.935890
20173.8281	-88.921349
20176.7578	-88.895416
20179.6875	-88.877716
20182.6172	-88.866287
20185.5469	-88.889168
20188.4766	-88.911331
20191.4062	-88.912056
20194.3359	-88.922943
20197.2656	-88.977600
20200.1953	-88.990875
20203.1250	-88.945297
20206.0547	-88.978081
20208.9844	-89.027298
20211.9141	-89.050331
20214.8438	-89.084404
20217.7734	-89.112259
20220.7031	-89.127251
20223.6328	-89.097206
20226.5625	-89.043358
20229.4922	-89.031380
20232.4219	-89.024529
20235.3516	-89.048096
20238.2812	-89.067039
20241.2109	-89.024620
20244.1406	-89.021248
20247.0703	-89.081215
20250.0000	-89.063408
20252.9297	-89.035034
20255.8594	-89.108292
20258.7891	-89.115311
20261.7188	-89.019890
20264.6484	-89.017059
20267.5781	-89.090782
20270.5078	-89.127846
20273.4375	-89.124496
20276.3672	-89.091225
20279.2969	-89.084518
20282.2266	-89.087296
20285.1562	-89.075874
20288.0859	-89.114082
20291.0156	-89.187531
20293.9453	-89.203255
20296.8750	-89.190437
20299.8047	-89.253120
20302.7344	-89.289436
20305.6641	-89.202484
20308.5938	-89.145706
20311.5234	-89.175652
20314.4531	-89.200378
20317.3828	-89.166534
20320.3125	-89.114761
20323.2422	-89.123535
20326.1719	-89.169525
20329.1016	-89.172173
20332.0312	-89.174782
20334.9609	-89.182014
20337.8906	-89.154518
20340.8203	-89.165497
20343.7500	-89.164413
20346.6797	-89.155029
20349.6094	-89.201424
20352.5391	-89.222549
20355.4688	-89.185410
20358.3984	-89.164780
20361.3281	-89.178146
20364.2578	-89.191078
20367.1875	-89.217316
20370.1172	-89.246971
20373.0469	-89.204948
20375.9766	-89.179184
20378.9062	-89.224747
20381.8359	-89.239944
20384.7656	-89.245903
20387.6953	-89.299522
20390.6250	-89.320587
20393.5547	-89.286057
20396.4844	-89.272491
20399.4141	-89.306297
20402.3438	-89.359261
20405.2734	-89.345993
20408.2031	-89.315964
20411.1328	-89.348053
20414.0625	-89.360954
20416.9922	-89.320045
20419.9219	-89.317284
20422.8516	-89.352608
20425.7812	-89.341469
20428.7109	-89.301010
20431.6406	-89.297455
20434.5703	-89.319908
20437.5000	-89.318253
20440.4297	-89.312851
20443.3594	-89.302284
20446.2891	-89.318207
20449.2188	-89.371704
20452.1484	-89.375175
20455.0781	-89.362396
20458.0078	-89.352531
20460.9375	-89.353973
20463.8672	-89.402016
20466.7969	-89.394699
20469.7266	-89.393158
20472.6562	-89.467941
20475.5859	-89.454414
20478.5156	-89.415276
20481.4453	-89.431503
20484.3750	-89.424438
20487.3047	-89.397896
20490.2344	-89.434547
20493.1641	-89.499771
20496.0938	-89.480263
20499.0234	-89.467911
20501.9531	-89.495361
20504.8828	-89.474075
20507.8125	-89.472969
20510.7422	-89.489265
20513.6719	-89.477409
20516.6016	-89.496323
20519.5312	-89.508255
20522.4609	-89.455185
20525.3906	-89.456863
20528.3203	-89.534637
20531.2500	-89.502571
20534.1797	-89.416870
20537.1094	-89.431541
20540.0391	-89.462852
20542.9688	-89.470718
20545.8984	-89.459183
20548.8281	-89.436424
20551.7578	-89.486664
20554.6875	-89.537613
20557.6172	-89.503433
20560.5469	-89.476143
20563.4766	-89.524445
20566.4062	-89.519226
20569.3359	-89.459236
20572.2656	-89.480080
20575.1953	-89.535080
20578.1250	-89.540001
20581.0547	-89.491631
20583.9844	-89.465363
20586.9141	-89.505539
20589.8438	-89.580612
20592.7734	-89.589615
20595.7031	-89.558182
20598.6328	-89.546249
20601.5625	-89.494003
20604.4922	-89.550781
20607.4219	-89.662659
20610.3516	-89.629128
20613.2812	-89.602509
20616.2109	-89.615570
20619.1406	-89.593239
20622.0703	-89.554611
20625.0000	-89.559784
20627.9297	-89.641815
20630.8594	-89.672707
20633.7891	-89.641235
20636.7188	-89.662567
20639.6484	-89.682640
20642.5781	-89.700790
20645.5078	-89.687416
20648.4375	-89.634026
20651.3672	-89.644760
20654.2969	-89.672272
20657.2266	-89.654015
20660.1562	-89.642342
20663.0859	-89.693924
20666.0156	-89.721420
20668.9453	-89.676239
20671.8750	-89.659027
20674.8047	-89.680717
20677.7344	-89.687004
20680.6641	-89.679321
20683.5938	-89.661484
20686.5234	-89.649429
20689.4531	-89.671425
20692.3828	-89.717659
20695.3125	-89.785133
20698.2422	-89.846947
20701.1719	-89.880913
20704.1016	-89.875992
20707.0312	-89.810226
20709.9609	-89.733131
20712.8906	-89.733643
20715.8203	-89.782227
20718.7500	-89.779869
20721.6797	-89.728745
20724.6094	-89.699516
20727.5391	-89.708321
20730.4688	-89.705688
20733.3984	-89.686989
20736.3281	-89.704346
20739.2578	-89.724098
20742.1875	-89.735435
20745.1172	-89.766708
20748.0469	-89.791466
20750.9766	-89.804199
20753.9062	-89.755722
20756.8359	-89.706329
20759.7656	-89.777489
20762.6953	-89.841728
20765.6250	-89.817322
20768.5547	-89.812729
20771.4844	-89.833862
20774.4141	-89.860115
20777.3438	-89.877640
20780.2734	-89.842140
20783.2031	-89.827141
20786.1328	-89.851540
20789.0625	-89.863014
20791.9922	-89.860725
20794.9219	-89.855721
20797.8516	-89.870613
20800.7812	-89.879547
20803.7109	-89.874664
20806.6406	-89.882584
20809.5703	-89.861671
20812.5000	-89.841644
20815.4297	-89.870514
20818.3594	-89.850784
20821.2891	-89.809471
20824.2188	-89.823975
20827.1484	-89.807556
20830.0781	-89.832794
20833.0078	-89.917435
20835.9375	-89.924004
20838.8672	-89.878395
20841.7969	-89.884094
20844.7266	-89.911598
20847.6562	-89.874916
20850.5859	-89.849518
20853.5156	-89.902481
20856.4453	-90.000023
20859.3750	-90.068993
20862.3047	-90.060402
20865.2344	-90.001587
20868.1641	-89.956856
20871.0938	-89.958778
20874.0234	-89.995110
20876.9531	-89.996346
20879.8828	-89.951103
20882.8125	-89.925812
20885.7422	-89.915413
20888.6719	-89.945427
20891.6016	-90.000580
20894.5312	-90.031319
20897.4609	-90.044899
20900.3906	-90.046516
20903.3203	-90.040771
20906.2500	-90.037338
20909.1797	-90.064857
20912.1094	-90.076576
20915.0391	-90.090591
20917.9688	-90.110527
20920.8984	-90.127594
20923.8281	-90.141098
20926.7578	-90.109230
20929.6875	-90.024750
20932.6172	-90.005577
20935.5469	-90.044800
20938.4766	-90.027946
20941.4062	-89.985191
20944.3359	-89.981949
20947.2656	-90.008034
20950.1953	-89.997581
20953.1250	-90.059052
20956.0547	-90.127678
20958.9844	-90.055130
20961.9141	-90.059258
20964.8438	-90.112785
20967.7734	-90.076736
20970.7031	-90.078568
20973.6328	-90.140327
20976.5625	-90.125000
20979.4922	-90.028786
20982.4219	-90.002342
20985.3516	-90.033440
20988.2812	-90.069618
20991.2109	-90.126434
20994.1406	-90.088257
20997.0703	-90.009583
21000.0000	-89.977592
21002.9297	-89.961578
21005.8594	-89.969109
21008.7891	-90.013786
21011.7188	-90.049637
21014.6484	-90.081871
21017.5781	-90.133560
21020.5078	-90.135780
21023.4375	-90.138931
21026.3672	-90.088722
21029.2969	-90.045998
21032.2266	-90.150330
21035.1562	-90.202690
21038.0859	-90.179230
21041.0156	-90.213623
21043.9453	-90.240433
21046.8750	-90.244995
21049.8047	-90.231987
21052.7344	-90.185181
21055.6641	-90.194824
21058.5938	-90.211266
21061.5234	-90.208817
21064.4531	-90.220558
21067.3828	-90.172913
21070.3125	-90.111465
21073.2422	-90.132545
21076.1719	-90.163826
21079.1016	-90.158730
21082.0312	-90.222733
21084.9609	-90.292145
21087.8906	-90.274971
21090.8203	-90.245079
21093.7500	-90.219421
21096.6797	-90.162613
21099.6094	-90.190300
21102.5391	-90.293243
21105.4688	-90.273613
21108.3984	-90.226082
21111.3281	-90.253555
21114.2578	-90.290588
21117.1875	-90.267387
21120.1172	-90.254768
21123.0469	-90.319923
21125.9766	-90.370293
21128.9062	-90.364868
21131.8359	-90.366859
21134.7656	-90.379166
21137.6953	-90.325317
21140.6250	-90.288177
21143.5547	-90.300362
21146.4844	-90.336304
21149.4141	-90.374901
21152.3438	-90.359253
21155.2734	-90.345490
21158.2031	-90.335663
21161.1328	-90.369003
21164.0625	-90.377754
21166.9922	-90.321243
21169.9219	-90.367058
21172.8516	-90.423523
21175.7812	-90.397850
21178.7109	-90.357643
21181.6406	-90.359619
21184.5703	-90.403969
21187.5000	-90.449051
21190.4297	-90.472305
21193.3594	-90.425636
21196.2891	-90.364265
21199.2188	-90.372803
21202.1484	-90.371246
21205.0781	-90.325073
21208.0078	-90.354675
21210.9375	-90.438736
21213.8672	-90.407829
21216.7969	-90.380577
21219.7266	-90.441925
21222.6562	-90.471069
21225.5859	-90.459984
21228.5156	-90.464966
21231.4453	-90.480873
21234.3750	-90.425545
21237.3047	-90.386139
21240.2344	-90.424461
21243.1641	-90.420982
21246.0938	-90.371864
21249.0234	-90.367111
21251.9531	-90.412155
21254.8828	-90.459869
21257.8125	-90.454018
21260.7422	-90.397171
21263.6719	-90.409706
21266.6016	-90.472244
21269.5312	-90.452209
21272.4609	-90.422783
21275.3906	-90.487991
21278.3203	-90.506004
21281.2500	-90.460396
21284.1797	-90.438675
21287.1094	-90.395752
21290.0391	-90.375290
21292.9688	-90.387314
21295.8984	-90.444412
21298.8281	-90.467514
21301.7578	-90.390366
21304.6875	-90.388962
21307.6172	-90.436356
21310.5469	-90.471916
21313.4766	-90.518044
21316.4062	-90.526497
21319.3359	-90.575462
21322.2656	-90.595055
21325.1953	-90.591965
21328.1250	-90.665970
21331.0547	-90.652847
21333.9844	-90.550117
21336.9141	-90.521042
21339.8438	-90.593208
21342.7734	-90.662666
21345.7031	-90.623299
21348.6328	-90.510017
21351.5625	-90.521431
21354.4922	-90.566528
21357.4219	-90.562820
21360.3516	-90.594711
21363.2812	-90.581139
21366.2109	-90.565552
21369.1406	-90.637032
21372.0703	-90.662727
21375.0000	-90.567490
21377.9297	-90.527428
21380.8594	-90.584091
21383.7891	-90.591049
21386.7188	-90.593643
21389.6484	-90.623405
21392.5781	-90.630295
21395.5078	-90.639282
21398.4375	-90.608269
21401.3672	-90.496811
21404.2969	-90.487068
21407.2266	-90.592377
21410.1562	-90.644630
21413.0859	-90.631676
21416.0156	-90.620415
21418.9453	-90.629044
21421.8750	-90.619217
21424.8047	-90.587959
21427.7344	-90.597702
21430.6641	-90.623238
21433.5938	-90.580635
21436.5234	-90.597420
21439.4531	-90.680687
21442.3828	-90.691650
21445.3125	-90.664391
21448.2422	-90.671455
21451.1719	-90.697426
21454.1016	-90.717361
21457.0312	-90.708817
21459.9609	-90.668304
21462.8906	-90.668907
21465.8203	-90.652542
21468.7500	-90.605797
21471.6797	-90.617279
21474.6094	-90.634567
21477.5391	-90.672478
21480.4688	-90.687233
21483.3984	-90.689774
21486.3281	-90.706108
21489.2578	-90.652977
21492.1875	-90.636833
21495.1172	-90.715561
21498.0469	-90.775002
21500.9766	-90.727707
21503.9062	-90.599625
21506.8359	-90.596542
21509.7656	-90.742172
21512.6953	-90.807137
21515.6250	-90.730118
21518.5547	-90.684723
21521.4844	-90.685913
21524.4141	-90.723595
21527.3438	-90.839645
21530.2734	-90.837654
21533.2031	-90.733353
21536.1328	-90.698738
21539.0625	-90.701202
21541.9922	-90.724419
21544.9219	-90.735359
21547.8516	-90.721344
21550.7812	-90.746704
21553.7109	-90.801598
21556.6406	-90.849632
21559.5703	-90.869133
21562.5000	-90.854897
21565.4297	-90.848434
21568.3594	-90.837967
21571.2891	-90.821907
21574.2188	-90.860031
21577.1484	-90.894928
21580.0781	-90.892181
21583.0078	-90.897057
21585.9375	-90.877846
21588.8672	-90.835205
21591.7969	-90.843826
21594.7266	-90.886551
21597.6562	-90.914886
21600.5859	-90.965950
21603.5156	-91.036224
21606.4453	-91.072830
21609.3750	-91.021088
21612.3047	-90.898170
21615.2344	-90.865921
21618.1641	-90.868370
21621.0938	-90.837242
21624.0234	-90.846268
21626.9531	-90.852516
21629.8828	-90.879974
21632.8125	-90.931747
21635.7422	-90.939110
21638.6719	-90.905342
21641.6016	-90.866325
21644.5312	-90.844376
21647.4609	-90.830498
21650.3906	-90.880775
21653.3203	-90.938683
21656.2500	-90.934074
