;Freq(Hz)	Relative Amplitude (dB): Left
17979.4922	-81.352600
17982.4219	-81.354004
17985.3516	-81.370262
17988.2812	-81.403755
17991.2109	-81.400391
17994.1406	-81.406235
17997.0703	-81.469612
18000.0000	-81.583389
18002.9297	-81.658569
18005.8594	-81.601395
18008.7891	-81.517059
18011.7188	-81.520164
18014.6484	-81.553741
18017.5781	-81.559258
18020.5078	-81.550201
18023.4375	-81.550911
18026.3672	-81.568222
18029.2969	-81.597862
18032.2266	-81.605583
18035.1562	-81.627861
18038.0859	-81.642349
18041.0156	-81.648651
18043.9453	-81.594368
18046.8750	-81.573555
18049.8047	-81.577118
18052.7344	-81.583122
18055.6641	-81.629318
18058.5938	-81.620987
18061.5234	-81.628448
18064.4531	-81.623428
18067.3828	-81.584801
18070.3125	-81.578056
18073.2422	-81.574318
18076.1719	-81.594757
18079.1016	-81.625702
18082.0312	-81.613846
18084.9609	-81.626686
18087.8906	-81.662376
18090.8203	-81.651199
18093.7500	-81.621178
18096.6797	-81.665245
18099.6094	-81.758018
18102.5391	-81.804344
18105.4688	-81.769211
18108.3984	-81.690102
18111.3281	-81.632515
18114.2578	-81.645164
18117.1875	-81.654701
18120.1172	-81.663116
18123.0469	-81.723450
18125.9766	-81.728294
18128.9062	-81.697327
18131.8359	-81.703285
18134.7656	-81.719131
18137.6953	-81.713028
18140.6250	-81.677803
18143.5547	-81.717941
18146.4844	-81.769310
18149.4141	-81.734566
18152.3438	-81.723389
18155.2734	-81.742279
18158.2031	-81.784531
18161.1328	-81.817062
18164.0625	-81.815948
18166.9922	-81.797302
18169.9219	-81.749619
18172.8516	-81.739799
18175.7812	-81.775833
18178.7109	-81.807732
18181.6406	-81.831558
18184.5703	-81.851540
18187.5000	-81.856689
18190.4297	-81.867798
18193.3594	-81.868217
18196.2891	-81.875099
18199.2188	-81.875427
18202.1484	-81.790405
18205.0781	-81.795303
18208.0078	-81.884216
18210.9375	-81.916977
18213.8672	-81.911957
18216.7969	-81.892143
18219.7266	-81.903419
18222.6562	-81.934647
18225.5859	-81.933502
18228.5156	-81.933083
18231.4453	-81.957367
18234.3750	-81.996162
18237.3047	-82.032455
18240.2344	-82.009460
18243.1641	-81.977425
18246.0938	-82.001656
18249.0234	-82.080147
18251.9531	-82.147148
18254.8828	-82.089165
18257.8125	-82.006264
18260.7422	-82.018791
18263.6719	-82.059456
18266.6016	-82.120415
18269.5312	-82.144318
18272.4609	-82.084671
18275.3906	-82.072350
18278.3203	-82.102341
18281.2500	-82.101547
18284.1797	-82.108276
18287.1094	-82.138031
18290.0391	-82.151337
18292.9688	-82.167259
18295.8984	-82.197639
18298.8281	-82.235970
18301.7578	-82.289665
18304.6875	-82.321213
18307.6172	-82.295547
18310.5469	-82.233620
18313.4766	-82.219078
18316.4062	-82.249084
18319.3359	-82.241966
18322.2656	-82.237000
18325.1953	-82.263603
18328.1250	-82.302170
18331.0547	-82.316002
18333.9844	-82.289505
18336.9141	-82.268211
18339.8438	-82.292595
18342.7734	-82.305588
18345.7031	-82.345314
18348.6328	-82.423042
18351.5625	-82.495705
18354.4922	-82.500862
18357.4219	-82.454735
18360.3516	-82.401924
18363.2812	-82.381310
18366.2109	-82.420143
18369.1406	-82.433922
18372.0703	-82.421494
18375.0000	-82.439674
18377.9297	-82.418640
18380.8594	-82.381584
18383.7891	-82.397621
18386.7188	-82.438576
18389.6484	-82.491783
18392.5781	-82.491486
18395.5078	-82.469681
18398.4375	-82.491028
18401.3672	-82.439278
18404.2969	-82.396950
18407.2266	-82.469292
18410.1562	-82.536217
18413.0859	-82.538727
18416.0156	-82.515884
18418.9453	-82.547279
18421.8750	-82.589737
18424.8047	-82.581810
18427.7344	-82.566765
18430.6641	-82.562706
18433.5938	-82.560974
18436.5234	-82.547615
18439.4531	-82.580673
18442.3828	-82.656090
18445.3125	-82.671616
18448.2422	-82.680389
18451.1719	-82.697304
18454.1016	-82.637283
18457.0312	-82.605804
18459.9609	-82.648232
18462.8906	-82.685440
18465.8203	-82.712105
18468.7500	-82.697540
18471.6797	-82.680229
18474.6094	-82.739815
18477.5391	-82.811089
18480.4688	-82.845222
18483.3984	-82.848549
18486.3281	-82.815956
18489.2578	-82.784256
18492.1875	-82.780014
18495.1172	-82.824669
18498.0469	-82.876274
18500.9766	-82.811859
18503.9062	-82.791122
18506.8359	-82.919586
18509.7656	-83.000183
18512.6953	-82.999069
18515.6250	-82.971390
18518.5547	-82.996750
18521.4844	-83.018478
18524.4141	-82.976814
18527.3438	-82.979630
18530.2734	-82.975937
18533.2031	-82.920525
18536.1328	-82.962906
18539.0625	-83.010658
18541.9922	-82.998413
18544.9219	-83.027718
18547.8516	-83.086090
18550.7812	-83.022850
18553.7109	-82.914276
18556.6406	-83.012764
18559.5703	-83.094818
18562.5000	-83.064034
18565.4297	-83.091347
18568.3594	-83.132256
18571.2891	-83.170242
18574.2188	-83.197716
18577.1484	-83.195869
18580.0781	-83.200813
18583.0078	-83.227264
18585.9375	-83.215599
18588.8672	-83.180092
18591.7969	-83.201149
18594.7266	-83.237923
18597.6562	-83.229897
18600.5859	-83.187790
18603.5156	-83.171326
18606.4453	-83.202141
18609.3750	-83.215279
18612.3047	-83.239372
18615.2344	-83.308388
18618.1641	-83.330566
18621.0938	-83.319160
18624.0234	-83.346275
18626.9531	-83.365944
18629.8828	-83.364006
18632.8125	-83.405350
18635.7422	-83.445007
18638.6719	-83.437454
18641.6016	-83.439514
18644.5312	-83.467468
18647.4609	-83.471878
18650.3906	-83.534950
18653.3203	-83.665161
18656.2500	-83.656693
18659.1797	-83.613754
18662.1094	-83.613052
18665.0391	-83.609230
18667.9688	-83.654144
18670.8984	-83.666985
18673.8281	-83.640709
18676.7578	-83.648361
18679.6875	-83.633881
18682.6172	-83.668228
18685.5469	-83.714294
18688.4766	-83.674683
18691.4062	-83.687798
18694.3359	-83.743782
18697.2656	-83.786049
18700.1953	-83.684853
18703.1250	-83.570000
18706.0547	-83.683868
18708.9844	-83.800323
18711.9141	-83.834511
18714.8438	-83.856003
18717.7734	-83.804253
18720.7031	-83.768532
18723.6328	-83.842018
18726.5625	-83.966248
18729.4922	-83.970116
18732.4219	-83.890007
18735.3516	-83.896690
18738.2812	-83.938774
18741.2109	-83.994225
18744.1406	-84.024864
18747.0703	-84.023918
18750.0000	-84.065956
18752.9297	-84.085281
18755.8594	-84.056122
18758.7891	-84.057655
18761.7188	-84.028671
18764.6484	-83.987381
18767.5781	-84.040604
18770.5078	-84.118515
18773.4375	-84.160645
18776.3672	-84.190331
18779.2969	-84.153000
18782.2266	-84.106567
18785.1562	-84.178444
18788.0859	-84.194016
18791.0156	-84.161568
18793.9453	-84.192307
18796.8750	-84.231522
18799.8047	-84.330833
18802.7344	-84.393044
18805.6641	-84.334885
18808.5938	-84.316605
18811.5234	-84.367996
18814.4531	-84.386650
18817.3828	-84.426521
18820.3125	-84.455589
18823.2422	-84.454910
18826.1719	-84.448479
18829.1016	-84.461296
18832.0312	-84.546005
18834.9609	-84.560852
18837.8906	-84.534081
18840.8203	-84.597359
18843.7500	-84.665489
18846.6797	-84.745636
18849.6094	-84.742821
18852.5391	-84.631905
18855.4688	-84.557930
18858.3984	-84.644562
18861.3281	-84.662994
18864.2578	-84.660172
18867.1875	-84.727135
18870.1172	-84.842453
18873.0469	-84.903175
18875.9766	-84.870857
18878.9062	-84.834206
18881.8359	-84.837624
18884.7656	-84.800362
18887.6953	-84.783836
18890.6250	-84.831947
18893.5547	-84.865623
18896.4844	-84.881935
18899.4141	-84.839180
18902.3438	-84.726875
18905.2734	-84.725693
18908.2031	-84.860291
18911.1328	-84.943489
18914.0625	-84.981438
18916.9922	-85.018387
18919.9219	-85.002846
18922.8516	-85.000557
18925.7812	-85.012337
18928.7109	-84.971733
18931.6406	-85.017876
18934.5703	-85.140129
18937.5000	-85.138016
18940.4297	-85.106056
18943.3594	-85.172447
18946.2891	-85.225952
18949.2188	-85.211571
18952.1484	-85.165550
18955.0781	-85.188240
18958.0078	-85.315529
18960.9375	-85.389069
18963.8672	-85.372879
18966.7969	-85.426331
18969.7266	-85.515709
18972.6562	-85.494797
18975.5859	-85.472656
18978.5156	-85.492104
18981.4453	-85.490852
18984.3750	-85.560425
18987.3047	-85.652740
18990.2344	-85.697388
18993.1641	-85.655701
18996.0938	-85.589516
18999.0234	-85.636452
19001.9531	-85.746796
19004.8828	-85.781349
19007.8125	-85.732590
19010.7422	-85.777756
19013.6719	-85.828117
19016.6016	-85.836815
19019.5312	-85.931007
19022.4609	-85.977982
19025.3906	-85.875336
19028.3203	-85.842987
19031.2500	-85.920555
19034.1797	-86.001732
19037.1094	-86.082138
19040.0391	-86.108116
19042.9688	-86.082588
19045.8984	-86.135994
19048.8281	-86.296135
19051.7578	-86.456841
19054.6875	-86.398354
19057.6172	-86.296638
19060.5469	-86.311554
19063.4766	-86.289970
19066.4062	-86.306053
19069.3359	-86.382523
19072.2656	-86.494232
19075.1953	-86.498466
19078.1250	-86.519501
19081.0547	-86.551750
19083.9844	-86.565964
19086.9141	-86.659348
19089.8438	-86.715034
19092.7734	-86.744347
19095.7031	-86.843979
19098.6328	-86.902046
19101.5625	-86.791077
19104.4922	-86.660751
19107.4219	-86.733170
19110.3516	-86.823807
19113.2812	-86.872009
19116.2109	-86.940468
19119.1406	-86.922142
19122.0703	-86.908890
19125.0000	-86.959366
19127.9297	-86.976677
19130.8594	-87.042221
19133.7891	-87.123535
19136.7188	-87.164886
19139.6484	-87.240875
19142.5781	-87.249855
19145.5078	-87.273529
19148.4375	-87.362312
19151.3672	-87.398621
19154.2969	-87.446808
19157.2266	-87.364441
19160.1562	-87.281532
19163.0859	-87.424232
19166.0156	-87.556656
19168.9453	-87.571365
19171.8750	-87.603699
19174.8047	-87.658707
19177.7344	-87.647644
19180.6641	-87.593300
19183.5938	-87.594414
19186.5234	-87.683800
19189.4531	-87.791229
19192.3828	-87.869576
19195.3125	-87.905724
19198.2422	-87.893799
19201.1719	-87.829605
19204.1016	-87.960747
19207.0312	-88.288155
19209.9609	-88.361046
19212.8906	-88.251144
19215.8203	-88.267342
19218.7500	-88.285423
19221.6797	-88.274551
19224.6094	-88.393471
19227.5391	-88.478378
19230.4688	-88.485016
19233.3984	-88.579926
19236.3281	-88.699944
19239.2578	-88.798172
19242.1875	-88.886589
19245.1172	-88.954483
19248.0469	-89.085892
19250.9766	-89.131538
19253.9062	-89.065887
19256.8359	-89.183578
19259.7656	-89.293251
19262.6953	-89.312088
19265.6250	-89.355492
19268.5547	-89.319153
19271.4844	-89.333916
19274.4141	-89.430733
19277.3438	-89.576927
19280.2734	-89.647110
19283.2031	-89.661690
19286.1328	-89.671265
19289.0625	-89.666862
19291.9922	-89.752731
19294.9219	-89.940491
19297.8516	-90.035255
19300.7812	-90.067261
19303.7109	-90.173080
19306.6406	-90.324631
19309.5703	-90.443947
19312.5000	-90.488106
19315.4297	-90.527725
19318.3594	-90.545113
19321.2891	-90.491013
19324.2188	-90.686905
19327.1484	-90.896812
19330.0781	-90.835320
19333.0078	-90.864601
19335.9375	-90.952682
19338.8672	-91.062691
19341.7969	-91.163895
19344.7266	-91.181419
19347.6562	-91.369164
19350.5859	-91.253227
19353.5156	-91.028465
19356.4453	-91.365395
19359.3750	-91.776047
19362.3047	-91.899200
19365.2344	-91.853790
19368.1641	-91.857239
19371.0938	-92.036987
19374.0234	-92.343536
19376.9531	-92.505775
19379.8828	-92.348328
19382.8125	-92.274071
19385.7422	-92.506546
19388.6719	-92.696190
19391.6016	-92.919144
19394.5312	-93.254639
19397.4609	-93.353539
19400.3906	-93.497200
19403.3203	-93.532288
19406.2500	-93.325867
19409.1797	-93.308723
19412.1094	-93.537186
19415.0391	-93.833031
19417.9688	-93.855133
19420.8984	-93.920204
19423.8281	-94.187401
19426.7578	-94.362961
19429.6875	-94.478951
19432.6172	-94.616982
19435.5469	-94.934120
19438.4766	-95.206726
19441.4062	-95.347305
19444.3359	-95.752441
19447.2656	-96.090858
19450.1953	-96.437958
19453.1250	-96.979897
19456.0547	-96.989525
19458.9844	-96.775406
19461.9141	-96.793098
19464.8438	-96.794785
19467.7734	-96.874939
19470.7031	-97.181870
19473.6328	-97.731331
19476.5625	-98.069313
19479.4922	-98.090515
19482.4219	-98.563225
19485.3516	-99.252525
19488.2812	-99.646469
19491.2109	-99.959999
19494.1406	-100.087257
19497.0703	-100.675690
19500.0000	-100.626648
19502.9297	-100.130074
19505.8594	-101.061249
19508.7891	-102.146645
19511.7188	-102.190071
19514.6484	-103.035141
19517.5781	-104.403076
19520.5078	-104.662773
19523.4375	-104.863083
19526.3672	-105.552765
19529.2969	-105.843102
19532.2266	-106.333092
19535.1562	-107.990120
19538.0859	-110.042480
19541.0156	-109.533836
19543.9453	-109.401535
19546.8750	-111.172310
19549.8047	-111.252533
19552.7344	-110.405602
19555.6641	-108.765984
19558.5938	-114.819717
19561.5234	-120.302101
19564.4531	-117.481491
19567.3828	-113.592407
19570.3125	-111.704910
19573.2422	-110.080421
19576.1719	-108.574562
19579.1016	-107.380936
19582.0312	-105.638733
19584.9609	-104.114220
19587.8906	-103.941551
19590.8203	-104.080711
19593.7500	-103.086853
19596.6797	-102.187981
19599.6094	-101.445938
19602.5391	-100.608475
19605.4688	-100.695221
19608.3984	-100.689819
19611.3281	-100.159927
19614.2578	-99.629868
19617.1875	-98.926491
19620.1172	-98.420853
19623.0469	-98.256279
19625.9766	-98.139824
19628.9062	-97.701874
19631.8359	-97.183342
19634.7656	-96.942444
19637.6953	-96.812737
19640.6250	-96.629044
19643.5547	-96.239983
19646.4844	-95.521111
19649.4141	-95.293098
19652.3438	-95.616692
19655.2734	-95.271629
19658.2031	-94.743599
19661.1328	-94.484192
19664.0625	-94.197540
19666.9922	-93.879219
19669.9219	-93.572105
19672.8516	-93.307968
19675.7812	-93.071861
19678.7109	-92.882553
19681.6406	-92.635330
19684.5703	-92.173790
19687.5000	-91.907158
19690.4297	-91.905655
19693.3594	-91.773117
19696.2891	-91.445816
19699.2188	-91.023796
19702.1484	-90.666405
19705.0781	-90.621658
19708.0078	-90.489349
19710.9375	-90.134544
19713.8672	-89.904030
19716.7969	-89.678398
19719.7266	-89.385597
19722.6562	-89.165604
19725.5859	-88.900299
19728.5156	-88.676590
19731.4453	-88.582581
19734.3750	-88.390358
19737.3047	-88.107506
19740.2344	-87.832031
19743.1641	-87.617271
19746.0938	-87.485626
19749.0234	-87.340652
19751.9531	-87.307274
19754.8828	-87.243462
19757.8125	-86.938110
19760.7422	-86.620476
19763.6719	-86.384369
19766.6016	-86.191620
19769.5312	-85.991417
19772.4609	-85.756813
19775.3906	-85.561028
19778.3203	-85.385635
19781.2500	-85.206444
19784.1797	-85.083618
19787.1094	-84.972061
19790.0391	-84.822594
19792.9688	-84.663414
19795.8984	-84.537880
19798.8281	-84.392311
19801.7578	-84.103149
19804.6875	-83.829391
19807.6172	-83.713707
19810.5469	-83.593033
19813.4766	-83.394150
19816.4062	-83.245438
19819.3359	-83.019394
19822.2656	-82.711777
19825.1953	-82.502274
19828.1250	-82.387688
19831.0547	-82.276054
19833.9844	-82.108238
19836.9141	-81.927193
19839.8438	-81.787834
19842.7734	-81.682487
19845.7031	-81.556412
19848.6328	-81.483589
19851.5625	-81.519943
19854.4922	-81.378593
19857.4219	-81.080727
19860.3516	-80.853531
19863.2812	-80.624863
19866.2109	-80.430977
19869.1406	-80.274803
19872.0703	-80.107857
19875.0000	-79.971809
19877.9297	-79.840050
19880.8594	-79.660599
19883.7891	-79.484383
19886.7188	-79.347923
19889.6484	-79.224968
19892.5781	-79.115623
19895.5078	-78.987030
19898.4375	-78.812073
19901.3672	-78.572380
19904.2969	-78.405556
19907.2266	-78.319695
19910.1562	-78.118988
19913.0859	-77.876244
19916.0156	-77.663078
19918.9453	-77.471474
19921.8750	-77.310760
19924.8047	-77.119537
19927.7344	-76.923599
19930.6641	-76.753502
19933.5938	-76.622543
19936.5234	-76.529396
19939.4531	-76.431931
19942.3828	-76.328018
19945.3125	-76.219299
19948.2422	-76.104172
19951.1719	-75.906158
19954.1016	-75.707130
19957.0312	-75.631310
19959.9609	-75.554276
19962.8906	-75.426659
19965.8203	-75.307945
19968.7500	-75.187286
19971.6797	-75.027664
19974.6094	-74.854721
19977.5391	-74.712029
19980.4688	-74.550140
19983.3984	-74.362122
19986.3281	-74.177452
19989.2578	-74.015289
19992.1875	-73.846291
19995.1172	-73.648735
19998.0469	-73.433739
20000.9766	-73.209267
20003.9062	-73.015358
20006.8359	-72.854950
20009.7656	-72.661179
20012.6953	-72.460243
20015.6250	-72.284698
20018.5547	-72.101891
20021.4844	-71.903725
20024.4141	-71.701271
20027.3438	-71.512794
20030.2734	-71.321663
20033.2031	-71.122345
20036.1328	-70.931763
20039.0625	-70.747665
20041.9922	-70.556435
20044.9219	-70.357491
20047.8516	-70.172256
20050.7812	-70.016502
20053.7109	-69.865646
20056.6406	-69.665855
20059.5703	-69.426895
20062.5000	-69.205338
20065.4297	-68.991661
20068.3594	-68.764053
20071.2891	-68.541328
20074.2188	-68.329826
20077.1484	-68.104309
20080.0781	-67.859047
20083.0078	-67.618767
20085.9375	-67.377419
20088.8672	-67.123581
20091.7969	-66.856422
20094.7266	-66.588165
20097.6562	-66.338882
20100.5859	-66.091797
20103.5156	-65.815926
20106.4453	-65.528297
20109.3750	-65.264503
20112.3047	-65.020477
20115.2344	-64.782944
20118.1641	-64.539589
20121.0938	-64.289368
20124.0234	-64.034836
20126.9531	-63.766510
20129.8828	-63.478962
20132.8125	-63.211380
20135.7422	-62.964996
20138.6719	-62.722519
20141.6016	-62.475819
20144.5312	-62.238785
20147.4609	-62.026615
20150.3906	-61.814964
20153.3203	-61.603844
20156.2500	-61.452805
20159.1797	-61.324589
20162.1094	-61.168049
20165.0391	-61.016251
20167.9688	-60.869347
20170.8984	-60.720600
20173.8281	-60.576904
20176.7578	-60.422852
20179.6875	-60.258495
20182.6172	-60.100540
20185.5469	-59.958294
20188.4766	-59.831501
20191.4062	-59.714436
20194.3359	-59.614311
20197.2656	-59.529465
20200.1953	-59.471161
20203.1250	-59.449730
20206.0547	-59.451218
20208.9844	-59.484505
20211.9141	-59.547989
20214.8438	-59.624752
20217.7734	-59.726357
20220.7031	-59.858196
20223.6328	-60.002647
20226.5625	-60.152637
20229.4922	-60.308270
20232.4219	-60.459595
20235.3516	-60.613430
20238.2812	-60.787788
20241.2109	-60.975441
20244.1406	-61.162857
20247.0703	-61.359692
20250.0000	-61.559322
20252.9297	-61.747414
20255.8594	-61.954800
20258.7891	-62.181049
20261.7188	-62.389565
20264.6484	-62.570171
20267.5781	-62.733124
20270.5078	-62.898186
20273.4375	-63.066025
20276.3672	-63.226864
20279.2969	-63.381725
20282.2266	-63.536137
20285.1562	-63.680801
20288.0859	-63.810455
20291.0156	-63.943790
20293.9453	-64.078491
20296.8750	-64.209320
20299.8047	-64.339951
20302.7344	-64.465691
20305.6641	-64.602859
20308.5938	-64.755211
20311.5234	-64.898323
20314.4531	-65.027390
20317.3828	-65.154686
20320.3125	-65.294670
20323.2422	-65.442268
20326.1719	-65.578529
20329.1016	-65.708344
20332.0312	-65.838089
20334.9609	-65.961235
20337.8906	-66.080185
20340.8203	-66.190933
20343.7500	-66.291786
20346.6797	-66.393959
20349.6094	-66.486603
20352.5391	-66.568443
20355.4688	-66.668213
20358.3984	-66.775726
20361.3281	-66.869156
20364.2578	-66.958038
20367.1875	-67.049194
20370.1172	-67.147873
20373.0469	-67.250862
20375.9766	-67.338890
20378.9062	-67.416840
20381.8359	-67.502853
20384.7656	-67.593224
20387.6953	-67.667709
20390.6250	-67.745438
20393.5547	-67.848900
20396.4844	-67.941483
20399.4141	-68.012085
20402.3438	-68.082283
20405.2734	-68.168175
20408.2031	-68.266502
20411.1328	-68.355736
20414.0625	-68.436493
20416.9922	-68.521812
20419.9219	-68.613373
20422.8516	-68.694504
20425.7812	-68.767212
20428.7109	-68.855064
20431.6406	-68.941490
20434.5703	-69.012848
20437.5000	-69.080780
20440.4297	-69.155205
20443.3594	-69.233315
20446.2891	-69.299545
20449.2188	-69.360558
20452.1484	-69.419128
20455.0781	-69.481995
20458.0078	-69.552223
20460.9375	-69.624832
20463.8672	-69.704796
20466.7969	-69.780960
20469.7266	-69.855255
20472.6562	-69.932495
20475.5859	-69.992081
20478.5156	-70.053673
20481.4453	-70.123955
20484.3750	-70.190758
20487.3047	-70.255264
20490.2344	-70.321938
20493.1641	-70.396889
20496.0938	-70.471298
20499.0234	-70.530540
20501.9531	-70.579300
20504.8828	-70.643692
20507.8125	-70.727814
20510.7422	-70.817001
20513.6719	-70.872009
20516.6016	-70.921577
20519.5312	-70.977486
20522.4609	-71.022423
20525.3906	-71.073570
20528.3203	-71.122940
20531.2500	-71.164604
20534.1797	-71.211166
20537.1094	-71.250664
20540.0391	-71.277725
20542.9688	-71.309853
20545.8984	-71.343620
20548.8281	-71.393616
20551.7578	-71.466187
20554.6875	-71.529846
20557.6172	-71.557854
20560.5469	-71.571281
20563.4766	-71.592445
20566.4062	-71.632248
20569.3359	-71.685043
20572.2656	-71.731712
20575.1953	-71.758751
20578.1250	-71.801056
20581.0547	-71.855911
20583.9844	-71.894386
20586.9141	-71.927834
20589.8438	-71.948463
20592.7734	-71.982803
20595.7031	-72.017662
20598.6328	-72.038048
20601.5625	-72.094681
20604.4922	-72.154182
20607.4219	-72.170639
20610.3516	-72.196716
20613.2812	-72.245079
20616.2109	-72.286499
20619.1406	-72.330620
20622.0703	-72.364441
20625.0000	-72.387894
20627.9297	-72.422279
20630.8594	-72.450638
20633.7891	-72.478050
20636.7188	-72.520454
20639.6484	-72.565414
20642.5781	-72.591248
20645.5078	-72.604073
20648.4375	-72.636528
20651.3672	-72.657547
20654.2969	-72.670334
20657.2266	-72.730560
20660.1562	-72.797913
20663.0859	-72.844238
20666.0156	-72.877029
20668.9453	-72.899178
20671.8750	-72.940628
20674.8047	-72.989380
20677.7344	-73.018784
20680.6641	-73.040741
20683.5938	-73.063774
20686.5234	-73.087448
20689.4531	-73.128281
20692.3828	-73.166603
20695.3125	-73.200417
20698.2422	-73.235252
20701.1719	-73.214417
20704.1016	-73.202507
20707.0312	-73.267822
20709.9609	-73.334076
20712.8906	-73.366409
20715.8203	-73.391060
20718.7500	-73.424362
20721.6797	-73.434082
20724.6094	-73.429451
20727.5391	-73.463203
20730.4688	-73.501129
20733.3984	-73.524216
20736.3281	-73.561607
20739.2578	-73.597504
20742.1875	-73.621925
20745.1172	-73.644066
20748.0469	-73.674408
20750.9766	-73.726120
20753.9062	-73.771400
20756.8359	-73.781273
20759.7656	-73.796799
20762.6953	-73.827850
20765.6250	-73.844193
20768.5547	-73.871712
20771.4844	-73.905785
20774.4141	-73.920059
20777.3438	-73.946533
20780.2734	-73.978127
20783.2031	-73.998993
20786.1328	-74.035767
20789.0625	-74.071159
20791.9922	-74.083496
20794.9219	-74.100632
20797.8516	-74.129250
20800.7812	-74.173309
20803.7109	-74.218651
20806.6406	-74.228096
20809.5703	-74.231346
20812.5000	-74.247810
20815.4297	-74.279160
20818.3594	-74.311012
20821.2891	-74.351189
20824.2188	-74.395912
20827.1484	-74.409508
20830.0781	-74.432632
20833.0078	-74.465569
20835.9375	-74.488350
20838.8672	-74.529953
20841.7969	-74.555901
20844.7266	-74.557747
20847.6562	-74.577042
20850.5859	-74.600945
20853.5156	-74.621216
20856.4453	-74.654678
20859.3750	-74.683968
20862.3047	-74.722443
20865.2344	-74.759666
20868.1641	-74.780174
20871.0938	-74.766472
20874.0234	-74.768127
20876.9531	-74.775421
20879.8828	-74.791901
20882.8125	-74.829552
20885.7422	-74.864983
20888.6719	-74.875870
20891.6016	-74.882759
20894.5312	-74.910156
20897.4609	-74.928123
20900.3906	-74.921875
20903.3203	-74.917969
20906.2500	-74.948242
20909.1797	-74.981659
20912.1094	-74.981171
20915.0391	-74.978233
20917.9688	-75.009071
20920.8984	-75.047668
20923.8281	-75.059464
20926.7578	-75.065842
20929.6875	-75.056190
20932.6172	-75.056099
20935.5469	-75.091339
20938.4766	-75.112221
20941.4062	-75.115936
20944.3359	-75.141129
20947.2656	-75.177162
20950.1953	-75.194916
20953.1250	-75.214096
20956.0547	-75.213310
20958.9844	-75.209450
20961.9141	-75.240196
20964.8438	-75.271088
20967.7734	-75.286446
20970.7031	-75.278679
20973.6328	-75.284431
20976.5625	-75.315895
20979.4922	-75.315720
20982.4219	-75.313095
20985.3516	-75.350540
20988.2812	-75.381401
20991.2109	-75.379906
20994.1406	-75.397171
20997.0703	-75.419304
21000.0000	-75.382736
21002.9297	-75.346298
21005.8594	-75.379898
21008.7891	-75.443573
21011.7188	-75.483192
21014.6484	-75.517601
21017.5781	-75.564369
21020.5078	-75.572327
21023.4375	-75.566742
21026.3672	-75.575806
21029.2969	-75.569771
21032.2266	-75.594109
21035.1562	-75.640480
21038.0859	-75.665291
21041.0156	-75.680756
21043.9453	-75.693336
21046.8750	-75.705231
21049.8047	-75.725616
21052.7344	-75.768967
21055.6641	-75.781784
21058.5938	-75.772003
21061.5234	-75.781021
21064.4531	-75.785515
21067.3828	-75.798233
21070.3125	-75.820511
21073.2422	-75.817451
21076.1719	-75.794952
21079.1016	-75.810806
21082.0312	-75.849258
21084.9609	-75.861572
21087.8906	-75.866760
21090.8203	-75.881721
21093.7500	-75.915726
21096.6797	-75.938751
21099.6094	-75.931328
21102.5391	-75.934273
21105.4688	-75.960228
21108.3984	-75.984985
21111.3281	-75.989319
21114.2578	-75.984444
21117.1875	-76.015968
21120.1172	-76.052048
21123.0469	-76.054741
21125.9766	-76.079391
21128.9062	-76.109283
21131.8359	-76.116440
21134.7656	-76.124458
21137.6953	-76.122986
21140.6250	-76.124649
21143.5547	-76.127831
21146.4844	-76.145111
21149.4141	-76.200500
21152.3438	-76.276848
21155.2734	-76.296577
21158.2031	-76.253601
21161.1328	-76.248650
21164.0625	-76.271729
21166.9922	-76.294891
21169.9219	-76.307487
21172.8516	-76.325317
21175.7812	-76.321915
21178.7109	-76.308434
21181.6406	-76.318878
21184.5703	-76.356995
21187.5000	-76.380676
21190.4297	-76.373863
21193.3594	-76.370941
21196.2891	-76.387650
21199.2188	-76.417145
21202.1484	-76.475861
21205.0781	-76.506790
21208.0078	-76.486244
21210.9375	-76.486107
21213.8672	-76.471405
21216.7969	-76.441849
21219.7266	-76.442123
21222.6562	-76.454185
21225.5859	-76.470566
21228.5156	-76.498337
21231.4453	-76.507324
21234.3750	-76.495766
21237.3047	-76.510941
21240.2344	-76.527390
21243.1641	-76.542030
21246.0938	-76.557289
21249.0234	-76.530052
21251.9531	-76.472969
21254.8828	-76.473557
21257.8125	-76.544586
21260.7422	-76.591980
21263.6719	-76.632439
21266.6016	-76.657349
21269.5312	-76.641609
21272.4609	-76.652527
21275.3906	-76.664322
21278.3203	-76.660660
21281.2500	-76.690620
21284.1797	-76.707321
21287.1094	-76.702858
21290.0391	-76.729706
21292.9688	-76.745995
21295.8984	-76.759979
21298.8281	-76.806870
21301.7578	-76.831497
21304.6875	-76.803688
21307.6172	-76.779793
21310.5469	-76.754112
21313.4766	-76.753105
21316.4062	-76.824196
21319.3359	-76.858276
21322.2656	-76.834702
21325.1953	-76.841133
21328.1250	-76.878235
21331.0547	-76.916534
21333.9844	-76.932777
21336.9141	-76.935318
21339.8438	-76.936569
21342.7734	-76.967339
21345.7031	-76.981506
21348.6328	-76.950531
21351.5625	-76.971283
21354.4922	-77.021446
21357.4219	-77.007538
21360.3516	-77.000084
21363.2812	-76.998970
21366.2109	-76.991585
21369.1406	-77.006271
21372.0703	-77.014908
21375.0000	-76.997147
21377.9297	-77.000938
21380.8594	-77.023911
21383.7891	-77.045273
21386.7188	-77.074417
21389.6484	-77.077293
21392.5781	-77.075829
21395.5078	-77.096947
21398.4375	-77.084427
21401.3672	-77.083122
21404.2969	-77.133522
21407.2266	-77.128548
21410.1562	-77.088852
21413.0859	-77.094696
21416.0156	-77.133812
21418.9453	-77.145531
21421.8750	-77.122643
21424.8047	-77.133392
21427.7344	-77.160088
21430.6641	-77.156410
21433.5938	-77.150208
21436.5234	-77.168381
21439.4531	-77.191467
21442.3828	-77.204620
21445.3125	-77.210449
21448.2422	-77.195686
21451.1719	-77.208618
21454.1016	-77.284439
21457.0312	-77.329994
21459.9609	-77.298843
21462.8906	-77.259727
21465.8203	-77.299911
21468.7500	-77.351936
21471.6797	-77.319649
21474.6094	-77.293762
21477.5391	-77.300804
21480.4688	-77.313614
21483.3984	-77.337761
21486.3281	-77.327187
21489.2578	-77.352142
21492.1875	-77.407753
21495.1172	-77.396706
21498.0469	-77.380157
21500.9766	-77.380638
21503.9062	-77.370079
21506.8359	-77.410606
21509.7656	-77.494881
21512.6953	-77.525200
21515.6250	-77.518578
21518.5547	-77.503265
21521.4844	-77.484962
21524.4141	-77.498077
21527.3438	-77.500000
21530.2734	-77.483498
21533.2031	-77.489876
21536.1328	-77.522781
21539.0625	-77.545677
21541.9922	-77.529106
21544.9219	-77.516861
21547.8516	-77.565193
21550.7812	-77.610878
21553.7109	-77.606636
21556.6406	-77.588394
21559.5703	-77.566154
21562.5000	-77.566643
21565.4297	-77.571632
21568.3594	-77.550140
21571.2891	-77.541954
21574.2188	-77.556755
21577.1484	-77.580421
21580.0781	-77.594551
21583.0078	-77.587090
21585.9375	-77.605232
21588.8672	-77.617134
21591.7969	-77.609436
21594.7266	-77.612938
21597.6562	-77.627251
21600.5859	-77.622719
21603.5156	-77.566193
21606.4453	-77.573029
21609.3750	-77.660568
21612.3047	-77.701088
21615.2344	-77.696434
21618.1641	-77.714165
21621.0938	-77.743057
21624.0234	-77.732269
21626.9531	-77.709549
21629.8828	-77.721947
21632.8125	-77.740608
21635.7422	-77.741730
21638.6719	-77.738243
21641.6016	-77.742149
21644.5312	-77.755463
21647.4609	-77.789215
21650.3906	-77.837402
21653.3203	-77.849251
21656.2500	-77.844933
21659.1797	-77.857231
21662.1094	-77.853470
21665.0391	-77.846664
21667.9688	-77.879913
21670.8984	-77.919090
21673.8281	-77.915199
21676.7578	-77.905556
21679.6875	-77.931000
21682.6172	-77.950974
21685.5469	-77.940819
21688.4766	-77.914520
21691.4062	-77.894958
21694.3359	-77.906036
21697.2656	-77.922302
21700.1953	-77.912750
21703.1250	-77.858284
21706.0547	-77.856377
21708.9844	-77.931198
21711.9141	-77.972359
21714.8438	-77.986755
21717.7734	-77.985886
21720.7031	-77.954887
21723.6328	-77.919456
21726.5625	-77.909698
21729.4922	-77.923752
21732.4219	-77.939140
21735.3516	-77.965317
21738.2812	-77.998634
21741.2109	-78.032822
21744.1406	-78.059013
21747.0703	-78.049896
21750.0000	-78.055199
21752.9297	-78.129578
21755.8594	-78.153717
21758.7891	-78.072922
21761.7188	-78.035683
21764.6484	-78.051025
21767.5781	-78.060768
21770.5078	-78.062263
21773.4375	-78.026360
21776.3672	-78.014870
21779.2969	-78.065109
21782.2266	-78.109367
21785.1562	-78.139458
21788.0859	-78.131950
21791.0156	-78.089874
21793.9453	-78.067268
21796.8750	-78.068031
21799.8047	-78.104614
21802.7344	-78.111145
21805.6641	-78.119530
21808.5938	-78.165154
21811.5234	-78.145439
21814.4531	-78.125473
21817.3828	-78.167572
21820.3125	-78.198677
21823.2422	-78.240715
21826.1719	-78.269608
21829.1016	-78.234978
21832.0312	-78.242775
21834.9609	-78.260468
21837.8906	-78.221680
21840.8203	-78.216667
21843.7500	-78.273941
21846.6797	-78.291756
21849.6094	-78.259933
21852.5391	-78.279671
21855.4688	-78.318649
21858.3984	-78.315346
21861.3281	-78.322586
21864.2578	-78.358856
21867.1875	-78.374939
21870.1172	-78.358200
21873.0469	-78.345299
21875.9766	-78.354111
21878.9062	-78.340485
21881.8359	-78.322815
21884.7656	-78.335350
21887.6953	-78.359695
21890.6250	-78.365822
21893.5547	-78.362900
21896.4844	-78.353851
21899.4141	-78.336525
21902.3438	-78.404305
21905.2734	-78.465813
21908.2031	-78.396912
21911.1328	-78.356422
21914.0625	-78.373138
21916.9922	-78.396843
21919.9219	-78.418320
21922.8516	-78.388824
21925.7812	-78.353241
21928.7109	-78.360573
21931.6406	-78.382423
21934.5703	-78.408600
21937.5000	-78.415718
21940.4297	-78.380470
21943.3594	-78.368629
21946.2891	-78.401848
21949.2188	-78.429100
21952.1484	-78.467392
21955.0781	-78.506889
21958.0078	-78.491806
21960.9375	-78.494652
21963.8672	-78.513710
21966.7969	-78.509224
21969.7266	-78.512726
21972.6562	-78.504356
21975.5859	-78.493645
21978.5156	-78.489334
21981.4453	-78.503403
21984.3750	-78.537384
21987.3047	-78.570511
21990.2344	-78.592690
21993.1641	-78.590630
21996.0938	-78.585335
21999.0234	-78.590157
