;Freq(Hz)	Relative Amplitude (dB): Left
18342.7734	-92.043518
18345.7031	-91.866669
18348.6328	-91.772934
18351.5625	-91.768181
18354.4922	-91.834122
18357.4219	-91.846947
18360.3516	-91.870110
18363.2812	-91.851585
18366.2109	-91.797455
18369.1406	-91.841637
18372.0703	-91.890266
18375.0000	-91.865089
18377.9297	-91.861259
18380.8594	-91.931618
18383.7891	-91.983131
18386.7188	-91.994965
18389.6484	-91.982292
18392.5781	-91.951141
18395.5078	-91.911316
18398.4375	-91.925011
18401.3672	-91.989098
18404.2969	-91.989853
18407.2266	-91.958008
18410.1562	-91.979393
18413.0859	-92.052124
18416.0156	-92.081398
18418.9453	-92.004524
18421.8750	-91.996750
18424.8047	-92.083923
18427.7344	-92.080513
18430.6641	-92.071938
18433.5938	-92.134369
18436.5234	-92.055504
18439.4531	-91.914391
18442.3828	-92.011047
18445.3125	-92.207520
18448.2422	-92.304848
18451.1719	-92.281494
18454.1016	-92.232025
18457.0312	-92.253586
18459.9609	-92.307289
18462.8906	-92.310196
18465.8203	-92.277847
18468.7500	-92.335030
18471.6797	-92.384338
18474.6094	-92.368416
18477.5391	-92.363663
18480.4688	-92.383194
18483.3984	-92.389824
18486.3281	-92.404922
18489.2578	-92.405678
18492.1875	-92.342209
18495.1172	-92.356384
18498.0469	-92.462318
18500.9766	-92.525261
18503.9062	-92.582748
18506.8359	-92.592148
18509.7656	-92.541878
18512.6953	-92.466225
18515.6250	-92.452751
18518.5547	-92.531097
18521.4844	-92.561005
18524.4141	-92.534950
18527.3438	-92.598717
18530.2734	-92.626678
18533.2031	-92.563835
18536.1328	-92.501289
18539.0625	-92.396637
18541.9922	-92.447105
18544.9219	-92.563477
18547.8516	-92.605377
18550.7812	-92.683083
18553.7109	-92.699562
18556.6406	-92.695320
18559.5703	-92.744965
18562.5000	-92.756119
18565.4297	-92.741951
18568.3594	-92.803360
18571.2891	-92.815353
18574.2188	-92.721336
18577.1484	-92.720573
18580.0781	-92.790779
18583.0078	-92.795456
18585.9375	-92.833527
18588.8672	-92.981590
18591.7969	-92.985695
18594.7266	-92.861206
18597.6562	-92.868378
18600.5859	-92.904297
18603.5156	-92.931053
18606.4453	-92.963112
18609.3750	-92.945610
18612.3047	-92.947464
18615.2344	-92.990082
18618.1641	-92.987442
18621.0938	-92.933617
18624.0234	-92.949303
18626.9531	-93.068916
18629.8828	-93.157753
18632.8125	-93.162827
18635.7422	-93.092514
18638.6719	-92.911537
18641.6016	-92.875687
18644.5312	-93.039322
18647.4609	-93.100357
18650.3906	-93.029861
18653.3203	-93.055603
18656.2500	-93.193176
18659.1797	-93.249397
18662.1094	-93.230240
18665.0391	-93.216164
18667.9688	-93.235390
18670.8984	-93.235825
18673.8281	-93.227058
18676.7578	-93.230064
18679.6875	-93.230721
18682.6172	-93.198608
18685.5469	-93.222038
18688.4766	-93.404160
18691.4062	-93.545364
18694.3359	-93.538902
18697.2656	-93.471672
18700.1953	-93.389626
18703.1250	-93.368599
18706.0547	-93.438217
18708.9844	-93.464417
18711.9141	-93.449944
18714.8438	-93.433273
18717.7734	-93.443611
18720.7031	-93.530312
18723.6328	-93.552200
18726.5625	-93.572411
18729.4922	-93.632164
18732.4219	-93.641846
18735.3516	-93.615173
18738.2812	-93.426071
18741.2109	-93.341827
18744.1406	-93.557121
18747.0703	-93.655663
18750.0000	-93.639671
18752.9297	-93.645462
18755.8594	-93.658180
18758.7891	-93.708755
18761.7188	-93.802849
18764.6484	-93.910149
18767.5781	-93.943901
18770.5078	-93.915382
18773.4375	-93.922646
18776.3672	-93.966011
18779.2969	-93.967018
18782.2266	-93.885048
18785.1562	-93.856018
18788.0859	-93.996704
18791.0156	-94.157898
18793.9453	-94.149078
18796.8750	-94.069298
18799.8047	-94.074562
18802.7344	-94.055756
18805.6641	-94.042839
18808.5938	-94.123039
18811.5234	-94.153488
18814.4531	-94.063469
18817.3828	-94.047676
18820.3125	-94.149315
18823.2422	-94.233253
18826.1719	-94.279945
18829.1016	-94.317116
18832.0312	-94.331985
18834.9609	-94.304192
18837.8906	-94.353218
18840.8203	-94.412621
18843.7500	-94.381119
18846.6797	-94.418640
18849.6094	-94.491814
18852.5391	-94.415863
18855.4688	-94.313873
18858.3984	-94.381279
18861.3281	-94.485596
18864.2578	-94.470383
18867.1875	-94.480629
18870.1172	-94.566360
18873.0469	-94.589714
18875.9766	-94.545914
18878.9062	-94.548691
18881.8359	-94.638779
18884.7656	-94.697128
18887.6953	-94.608330
18890.6250	-94.497559
18893.5547	-94.465828
18896.4844	-94.492615
18899.4141	-94.601105
18902.3438	-94.715927
18905.2734	-94.768814
18908.2031	-94.760628
18911.1328	-94.763985
18914.0625	-94.819839
18916.9922	-94.911263
18919.9219	-94.995049
18922.8516	-94.999771
18925.7812	-95.032112
18928.7109	-95.056602
18931.6406	-94.987396
18934.5703	-94.913696
18937.5000	-94.883987
18940.4297	-94.996719
18943.3594	-94.995346
18946.2891	-94.964828
18949.2188	-95.007759
18952.1484	-95.109634
18955.0781	-95.184807
18958.0078	-95.239944
18960.9375	-95.278160
18963.8672	-95.247513
18966.7969	-95.319138
18969.7266	-95.380142
18972.6562	-95.265366
18975.5859	-95.318718
18978.5156	-95.491112
18981.4453	-95.527740
18984.3750	-95.413521
18987.3047	-95.365173
18990.2344	-95.448547
18993.1641	-95.524162
18996.0938	-95.534828
18999.0234	-95.456017
19001.9531	-95.482819
19004.8828	-95.595703
19007.8125	-95.585114
19010.7422	-95.597260
19013.6719	-95.702644
19016.6016	-95.648834
19019.5312	-95.538689
19022.4609	-95.590294
19025.3906	-95.706337
19028.3203	-95.823471
19031.2500	-95.895538
19034.1797	-95.816460
19037.1094	-95.846115
19040.0391	-96.033028
19042.9688	-95.956123
19045.8984	-95.892731
19048.8281	-96.071114
19051.7578	-96.116226
19054.6875	-96.062370
19057.6172	-96.057350
19060.5469	-96.102219
19063.4766	-96.085602
19066.4062	-96.027664
19069.3359	-96.114357
19072.2656	-96.276703
19075.1953	-96.300720
19078.1250	-96.154396
19081.0547	-96.109703
19083.9844	-96.217796
19086.9141	-96.253670
19089.8438	-96.245087
19092.7734	-96.412521
19095.7031	-96.475624
19098.6328	-96.440834
19101.5625	-96.528397
19104.4922	-96.584435
19107.4219	-96.607727
19110.3516	-96.568962
19113.2812	-96.666336
19116.2109	-96.717316
19119.1406	-96.731316
19122.0703	-96.818184
19125.0000	-96.826660
19127.9297	-96.771179
19130.8594	-96.766747
19133.7891	-96.834038
19136.7188	-96.852509
19139.6484	-96.776276
19142.5781	-96.972977
19145.5078	-97.316032
19148.4375	-97.384789
19151.3672	-97.241150
19154.2969	-97.167534
19157.2266	-97.215088
19160.1562	-97.225304
19163.0859	-97.209946
19166.0156	-97.233757
19168.9453	-97.296867
19171.8750	-97.281639
19174.8047	-97.273033
19177.7344	-97.325020
19180.6641	-97.337540
19183.5938	-97.381912
19186.5234	-97.676888
19189.4531	-97.926468
19192.3828	-97.762207
19195.3125	-97.563889
19198.2422	-97.529686
19201.1719	-97.725975
19204.1016	-97.939613
19207.0312	-97.920128
19209.9609	-97.988586
19212.8906	-98.034683
19215.8203	-97.908119
19218.7500	-97.908516
19221.6797	-98.012939
19224.6094	-98.073463
19227.5391	-98.208763
19230.4688	-98.328178
19233.3984	-98.432762
19236.3281	-98.405121
19239.2578	-98.134491
19242.1875	-98.229042
19245.1172	-98.587601
19248.0469	-98.638329
19250.9766	-98.592438
19253.9062	-98.628807
19256.8359	-98.780243
19259.7656	-98.875099
19262.6953	-98.825500
19265.6250	-98.880371
19268.5547	-98.909302
19271.4844	-98.914978
19274.4141	-98.929794
19277.3438	-99.001083
19280.2734	-99.239670
19283.2031	-99.461678
19286.1328	-99.586174
19289.0625	-99.701843
19291.9922	-99.485985
19294.9219	-99.300110
19297.8516	-99.416153
19300.7812	-99.541527
19303.7109	-99.638580
19306.6406	-99.628578
19309.5703	-99.601913
19312.5000	-99.764786
19315.4297	-99.908997
19318.3594	-99.857880
19321.2891	-99.843140
19324.2188	-100.066330
19327.1484	-100.201454
19330.0781	-100.104263
19333.0078	-100.114212
19335.9375	-100.165207
19338.8672	-100.048470
19341.7969	-100.199333
19344.7266	-100.624352
19347.6562	-100.637825
19350.5859	-100.436905
19353.5156	-100.608986
19356.4453	-100.895561
19359.3750	-100.972420
19362.3047	-101.032448
19365.2344	-101.139236
19368.1641	-101.384438
19371.0938	-101.603882
19374.0234	-101.507828
19376.9531	-101.237183
19379.8828	-101.117897
19382.8125	-101.366638
19385.7422	-101.922081
19388.6719	-102.249046
19391.6016	-101.870232
19394.5312	-101.499107
19397.4609	-101.755051
19400.3906	-102.209770
19403.3203	-102.219475
19406.2500	-102.032684
19409.1797	-102.092102
19412.1094	-102.210762
19415.0391	-102.287910
19417.9688	-102.390999
19420.8984	-102.540131
19423.8281	-102.670555
19426.7578	-102.581657
19429.6875	-102.672310
19432.6172	-103.006195
19435.5469	-103.544357
19438.4766	-104.473480
19441.4062	-104.301414
19444.3359	-103.572960
19447.2656	-103.565865
19450.1953	-103.697334
19453.1250	-103.970367
19456.0547	-104.102943
19458.9844	-104.104828
19461.9141	-104.186386
19464.8438	-104.283592
19467.7734	-104.461578
19470.7031	-104.752037
19473.6328	-105.226807
19476.5625	-105.274277
19479.4922	-105.080330
19482.4219	-105.209869
19485.3516	-105.256279
19488.2812	-105.176460
19491.2109	-105.444794
19494.1406	-106.029312
19497.0703	-106.514885
19500.0000	-106.662254
19502.9297	-106.744286
19505.8594	-107.014595
19508.7891	-107.261543
19511.7188	-107.349060
19514.6484	-107.518097
19517.5781	-108.045021
19520.5078	-108.350510
19523.4375	-107.988998
19526.3672	-107.675705
19529.2969	-108.425476
19532.2266	-109.366524
19535.1562	-109.522308
19538.0859	-108.685684
19541.0156	-108.492874
19543.9453	-109.777390
19546.8750	-110.687988
19549.8047	-110.625992
19552.7344	-110.637276
19555.6641	-111.693283
19558.5938	-112.580925
19561.5234	-112.335838
19564.4531	-112.163162
19567.3828	-112.395836
19570.3125	-112.880058
19573.2422	-113.541725
19576.1719	-113.768379
19579.1016	-113.020706
19582.0312	-112.652954
19584.9609	-113.684616
19587.8906	-114.095940
19590.8203	-114.494133
19593.7500	-116.433800
19596.6797	-115.858925
19599.6094	-116.539764
19602.5391	-117.445312
19605.4688	-116.958855
19608.3984	-116.984512
19611.3281	-117.051544
19614.2578	-116.581322
19617.1875	-117.743011
19620.1172	-118.530312
19623.0469	-118.242088
19625.9766	-117.921539
19628.9062	-117.681427
19631.8359	-118.192635
19634.7656	-117.720146
19637.6953	-114.771217
19640.6250	-114.068893
19643.5547	-116.595627
19646.4844	-117.570122
19649.4141	-115.246101
19652.3438	-115.137764
19655.2734	-115.915596
19658.2031	-114.516861
19661.1328	-113.176498
19664.0625	-112.491089
19666.9922	-112.001793
19669.9219	-111.570259
19672.8516	-110.894936
19675.7812	-110.404007
19678.7109	-110.246513
19681.6406	-110.055420
19684.5703	-109.765656
19687.5000	-109.021156
19690.4297	-108.457275
19693.3594	-108.380470
19696.2891	-108.180771
19699.2188	-108.080490
19702.1484	-108.091187
19705.0781	-107.793922
19708.0078	-107.444626
19710.9375	-107.254036
19713.8672	-106.988609
19716.7969	-106.891083
19719.7266	-106.533447
19722.6562	-105.992531
19725.5859	-105.443153
19728.5156	-104.889420
19731.4453	-104.732117
19734.3750	-104.801743
19737.3047	-104.753265
19740.2344	-104.821342
19743.1641	-104.336128
19746.0938	-103.982323
19749.0234	-103.870476
19751.9531	-103.631386
19754.8828	-103.460686
19757.8125	-103.069450
19760.7422	-102.751968
19763.6719	-102.765747
19766.6016	-102.338570
19769.5312	-101.724754
19772.4609	-101.581810
19775.3906	-101.621864
19778.3203	-101.576538
19781.2500	-101.571747
19784.1797	-101.252014
19787.1094	-100.664085
19790.0391	-100.485558
19792.9688	-100.671448
19795.8984	-100.539116
19798.8281	-100.299530
19801.7578	-100.224190
19804.6875	-100.090965
19807.6172	-99.956604
19810.5469	-99.698570
19813.4766	-99.392464
19816.4062	-99.215889
19819.3359	-99.073395
19822.2656	-98.894142
19825.1953	-98.704582
19828.1250	-98.510757
19831.0547	-98.260292
19833.9844	-98.124695
19836.9141	-98.376457
19839.8438	-98.520691
19842.7734	-98.149406
19845.7031	-97.795898
19848.6328	-97.595222
19851.5625	-97.359642
19854.4922	-97.163986
19857.4219	-97.068947
19860.3516	-96.938736
19863.2812	-96.784088
19866.2109	-96.736153
19869.1406	-96.624245
19872.0703	-96.417221
19875.0000	-96.236725
19877.9297	-96.094833
19880.8594	-95.976616
19883.7891	-95.894478
19886.7188	-95.623573
19889.6484	-95.241234
19892.5781	-95.199783
19895.5078	-95.196548
19898.4375	-95.015877
19901.3672	-94.950317
19904.2969	-94.874084
19907.2266	-94.755157
19910.1562	-94.683449
19913.0859	-94.530426
19916.0156	-94.351456
19918.9453	-94.230553
19921.8750	-94.196053
19924.8047	-94.130447
19927.7344	-93.859390
19930.6641	-93.581299
19933.5938	-93.426071
19936.5234	-93.390739
19939.4531	-93.455032
19942.3828	-93.386589
19945.3125	-93.057961
19948.2422	-92.798248
19951.1719	-92.816643
19954.1016	-92.840080
19957.0312	-92.727188
19959.9609	-92.598434
19962.8906	-92.502014
19965.8203	-92.326485
19968.7500	-92.132088
19971.6797	-92.031776
19974.6094	-91.836594
19977.5391	-91.641884
19980.4688	-91.594009
19983.3984	-91.483559
19986.3281	-91.328171
19989.2578	-91.229492
19992.1875	-91.173332
19995.1172	-91.069008
19998.0469	-90.836624
20000.9766	-90.643898
20003.9062	-90.593163
20006.8359	-90.538330
20009.7656	-90.465736
20012.6953	-90.319336
20015.6250	-90.091110
20018.5547	-89.954849
20021.4844	-89.870544
20024.4141	-89.766228
20027.3438	-89.668983
20030.2734	-89.527466
20033.2031	-89.416412
20036.1328	-89.335785
20039.0625	-89.148384
20041.9922	-88.976662
20044.9219	-88.864738
20047.8516	-88.795570
20050.7812	-88.756653
20053.7109	-88.660332
20056.6406	-88.528305
20059.5703	-88.355995
20062.5000	-88.195427
20065.4297	-88.096138
20068.3594	-87.996269
20071.2891	-87.864365
20074.2188	-87.728592
20077.1484	-87.609100
20080.0781	-87.506126
20083.0078	-87.378143
20085.9375	-87.172134
20088.8672	-86.999046
20091.7969	-86.892601
20094.7266	-86.834465
20097.6562	-86.811310
20100.5859	-86.727722
20103.5156	-86.577553
20106.4453	-86.433487
20109.3750	-86.329346
20112.3047	-86.234039
20115.2344	-86.116020
20118.1641	-85.959167
20121.0938	-85.823196
20124.0234	-85.720825
20126.9531	-85.589439
20129.8828	-85.443611
20132.8125	-85.320671
20135.7422	-85.216545
20138.6719	-85.112816
20141.6016	-84.979637
20144.5312	-84.821884
20147.4609	-84.673027
20150.3906	-84.535271
20153.3203	-84.405014
20156.2500	-84.276123
20159.1797	-84.161560
20162.1094	-84.038353
20165.0391	-83.891052
20167.9688	-83.763077
20170.8984	-83.657814
20173.8281	-83.544159
20176.7578	-83.404015
20179.6875	-83.272774
20182.6172	-83.137901
20185.5469	-83.013359
20188.4766	-82.938263
20191.4062	-82.795120
20194.3359	-82.605209
20197.2656	-82.447914
20200.1953	-82.291969
20203.1250	-82.157997
20206.0547	-82.039513
20208.9844	-81.921104
20211.9141	-81.788437
20214.8438	-81.625854
20217.7734	-81.460159
20220.7031	-81.304100
20223.6328	-81.166260
20226.5625	-81.046028
20229.4922	-80.901749
20232.4219	-80.753868
20235.3516	-80.586380
20238.2812	-80.368568
20241.2109	-80.207176
20244.1406	-80.090912
20247.0703	-79.928360
20250.0000	-79.749031
20252.9297	-79.586288
20255.8594	-79.437706
20258.7891	-79.275360
20261.7188	-79.077255
20264.6484	-78.886070
20267.5781	-78.720848
20270.5078	-78.546928
20273.4375	-78.365425
20276.3672	-78.189735
20279.2969	-78.021492
20282.2266	-77.857368
20285.1562	-77.672699
20288.0859	-77.480888
20291.0156	-77.319839
20293.9453	-77.154076
20296.8750	-76.969635
20299.8047	-76.783638
20302.7344	-76.593521
20305.6641	-76.402077
20308.5938	-76.200943
20311.5234	-75.980835
20314.4531	-75.755150
20317.3828	-75.545769
20320.3125	-75.324120
20323.2422	-75.088806
20326.1719	-74.872200
20329.1016	-74.648720
20332.0312	-74.419083
20334.9609	-74.193817
20337.8906	-73.964691
20340.8203	-73.728729
20343.7500	-73.462624
20346.6797	-73.191658
20349.6094	-72.938980
20352.5391	-72.683548
20355.4688	-72.425713
20358.3984	-72.160828
20361.3281	-71.890305
20364.2578	-71.617172
20367.1875	-71.324997
20370.1172	-71.022308
20373.0469	-70.721092
20375.9766	-70.409668
20378.9062	-70.074669
20381.8359	-69.713127
20384.7656	-69.356064
20387.6953	-68.994354
20390.6250	-68.624931
20393.5547	-68.245644
20396.4844	-67.837502
20399.4141	-67.411400
20402.3438	-66.970451
20405.2734	-66.524315
20408.2031	-66.077393
20411.1328	-65.614746
20414.0625	-65.121704
20416.9922	-64.607750
20419.9219	-64.090691
20422.8516	-63.572582
20425.7812	-63.038944
20428.7109	-62.494614
20431.6406	-61.941471
20434.5703	-61.397335
20437.5000	-60.908524
20440.4297	-60.448086
20443.3594	-60.008606
20446.2891	-59.647457
20449.2188	-59.379269
20452.1484	-59.202663
20455.0781	-59.133114
20458.0078	-59.181404
20460.9375	-59.340721
20463.8672	-59.593773
20466.7969	-59.932636
20469.7266	-60.344322
20472.6562	-60.793163
20475.5859	-61.251205
20478.5156	-61.719597
20481.4453	-62.195774
20484.3750	-62.670280
20487.3047	-63.141243
20490.2344	-63.605003
20493.1641	-64.060707
20496.0938	-64.495575
20499.0234	-64.910492
20501.9531	-65.312874
20504.8828	-65.701279
20507.8125	-66.079277
20510.7422	-66.434448
20513.6719	-66.776260
20516.6016	-67.121826
20519.5312	-67.457520
20522.4609	-67.768631
20525.3906	-68.058952
20528.3203	-68.349396
20531.2500	-68.649086
20534.1797	-68.931976
20537.1094	-69.180450
20540.0391	-69.434425
20542.9688	-69.695030
20545.8984	-69.921356
20548.8281	-70.143120
20551.7578	-70.377487
20554.6875	-70.590195
20557.6172	-70.789139
20560.5469	-70.999496
20563.4766	-71.203941
20566.4062	-71.387444
20569.3359	-71.573257
20572.2656	-71.779266
20575.1953	-71.978615
20578.1250	-72.160507
20581.0547	-72.336449
20583.9844	-72.498833
20586.9141	-72.649765
20589.8438	-72.802116
20592.7734	-72.959290
20595.7031	-73.122162
20598.6328	-73.288498
20601.5625	-73.434357
20604.4922	-73.573769
20607.4219	-73.719086
20610.3516	-73.860558
20613.2812	-74.013115
20616.2109	-74.160957
20619.1406	-74.282814
20622.0703	-74.409332
20625.0000	-74.548546
20627.9297	-74.669678
20630.8594	-74.771805
20633.7891	-74.890495
20636.7188	-74.999992
20639.6484	-75.083275
20642.5781	-75.208565
20645.5078	-75.357155
20648.4375	-75.482857
20651.3672	-75.592323
20654.2969	-75.695244
20657.2266	-75.789360
20660.1562	-75.884209
20663.0859	-75.969421
20666.0156	-76.053207
20668.9453	-76.156853
20671.8750	-76.264374
20674.8047	-76.360428
20677.7344	-76.434753
20680.6641	-76.511307
20683.5938	-76.607643
20686.5234	-76.689468
20689.4531	-76.755394
20692.3828	-76.858055
20695.3125	-76.955544
20698.2422	-77.021034
20701.1719	-77.098854
20704.1016	-77.164200
20707.0312	-77.243271
20709.9609	-77.344788
20712.8906	-77.427483
20715.8203	-77.492935
20718.7500	-77.554985
20721.6797	-77.626976
20724.6094	-77.701302
20727.5391	-77.776733
20730.4688	-77.840828
20733.3984	-77.898827
20736.3281	-77.986412
20739.2578	-78.061752
20742.1875	-78.109871
20745.1172	-78.189049
20748.0469	-78.267624
20750.9766	-78.311134
20753.9062	-78.360764
20756.8359	-78.430862
20759.7656	-78.508705
20762.6953	-78.575958
20765.6250	-78.634781
20768.5547	-78.711700
20771.4844	-78.791809
20774.4141	-78.846436
20777.3438	-78.895874
20780.2734	-78.964462
20783.2031	-79.034431
20786.1328	-79.111191
20789.0625	-79.192230
20791.9922	-79.242287
20794.9219	-79.277390
20797.8516	-79.321243
20800.7812	-79.367737
20803.7109	-79.418251
20806.6406	-79.463219
20809.5703	-79.508835
20812.5000	-79.545761
20815.4297	-79.565071
20818.3594	-79.630081
20821.2891	-79.717484
20824.2188	-79.755814
20827.1484	-79.784912
20830.0781	-79.843857
20833.0078	-79.905243
20835.9375	-79.934547
20838.8672	-79.950722
20841.7969	-80.008530
20844.7266	-80.090317
20847.6562	-80.137093
20850.5859	-80.173439
20853.5156	-80.213188
20856.4453	-80.241180
20859.3750	-80.275024
20862.3047	-80.324272
20865.2344	-80.388115
20868.1641	-80.436195
20871.0938	-80.476517
20874.0234	-80.551743
20876.9531	-80.630791
20879.8828	-80.661293
20882.8125	-80.684845
20885.7422	-80.710907
20888.6719	-80.704773
20891.6016	-80.745132
20894.5312	-80.835365
20897.4609	-80.883621
20900.3906	-80.913910
20903.3203	-80.964432
20906.2500	-81.007225
20909.1797	-81.067711
20912.1094	-81.139580
20915.0391	-81.176880
20917.9688	-81.215263
20920.8984	-81.257599
20923.8281	-81.292740
20926.7578	-81.320175
20929.6875	-81.335472
20932.6172	-81.365021
20935.5469	-81.410561
20938.4766	-81.451355
20941.4062	-81.471512
20944.3359	-81.481857
20947.2656	-81.513969
20950.1953	-81.576202
20953.1250	-81.621918
20956.0547	-81.615211
20958.9844	-81.619576
20961.9141	-81.671112
20964.8438	-81.719795
20967.7734	-81.748199
20970.7031	-81.768379
20973.6328	-81.795128
20976.5625	-81.834587
20979.4922	-81.876427
20982.4219	-81.903854
20985.3516	-81.931305
20988.2812	-81.988655
20991.2109	-82.020546
20994.1406	-82.029778
20997.0703	-82.051964
21000.0000	-82.059601
21002.9297	-82.085587
21005.8594	-82.122520
21008.7891	-82.144035
21011.7188	-82.178795
21014.6484	-82.220261
21017.5781	-82.254463
21020.5078	-82.283371
21023.4375	-82.311142
21026.3672	-82.350105
21029.2969	-82.394943
21032.2266	-82.413948
21035.1562	-82.436951
21038.0859	-82.521339
21041.0156	-82.586258
21043.9453	-82.565094
21046.8750	-82.537720
21049.8047	-82.557510
21052.7344	-82.604713
21055.6641	-82.654427
21058.5938	-82.709084
21061.5234	-82.732590
21064.4531	-82.734238
21067.3828	-82.786423
21070.3125	-82.840286
21073.2422	-82.862328
21076.1719	-82.873810
21079.1016	-82.896965
21082.0312	-82.943741
21084.9609	-82.978783
21087.8906	-83.014191
21090.8203	-83.032135
21093.7500	-83.019852
21096.6797	-83.053772
21099.6094	-83.088364
21102.5391	-83.101112
21105.4688	-83.110367
21108.3984	-83.106995
21111.3281	-83.123070
21114.2578	-83.160255
21117.1875	-83.179398
21120.1172	-83.188698
21123.0469	-83.213005
21125.9766	-83.244858
21128.9062	-83.283043
21131.8359	-83.324615
21134.7656	-83.364716
21137.6953	-83.398094
21140.6250	-83.394875
21143.5547	-83.378082
21146.4844	-83.379547
21149.4141	-83.406082
21152.3438	-83.459068
21155.2734	-83.499001
21158.2031	-83.517426
21161.1328	-83.525101
21164.0625	-83.525406
21166.9922	-83.563667
21169.9219	-83.619186
21172.8516	-83.629761
21175.7812	-83.619957
21178.7109	-83.633499
21181.6406	-83.654648
21184.5703	-83.664848
21187.5000	-83.729416
21190.4297	-83.793694
21193.3594	-83.770561
21196.2891	-83.762932
21199.2188	-83.802391
21202.1484	-83.845764
21205.0781	-83.858719
21208.0078	-83.843384
21210.9375	-83.854958
21213.8672	-83.893517
21216.7969	-83.921753
21219.7266	-83.939064
21222.6562	-83.949783
21225.5859	-83.964813
21228.5156	-83.977699
21231.4453	-84.009186
21234.3750	-84.062614
21237.3047	-84.074280
21240.2344	-84.068649
21243.1641	-84.091652
21246.0938	-84.124077
21249.0234	-84.149292
21251.9531	-84.166260
21254.8828	-84.180321
21257.8125	-84.181465
21260.7422	-84.201721
21263.6719	-84.229622
21266.6016	-84.233505
21269.5312	-84.256401
21272.4609	-84.294197
21275.3906	-84.314148
21278.3203	-84.318535
21281.2500	-84.330635
21284.1797	-84.370621
21287.1094	-84.425262
21290.0391	-84.440681
21292.9688	-84.430664
21295.8984	-84.425919
21298.8281	-84.422890
21301.7578	-84.447372
21304.6875	-84.475731
21307.6172	-84.507027
21310.5469	-84.544365
21313.4766	-84.585670
21316.4062	-84.610779
21319.3359	-84.610077
21322.2656	-84.620598
21325.1953	-84.640846
21328.1250	-84.667244
21331.0547	-84.692360
21333.9844	-84.734253
21336.9141	-84.758316
21339.8438	-84.733910
21342.7734	-84.737396
21345.7031	-84.782478
21348.6328	-84.791679
21351.5625	-84.765884
21354.4922	-84.781708
21357.4219	-84.829132
21360.3516	-84.869812
21363.2812	-84.866180
21366.2109	-84.850739
21369.1406	-84.871346
21372.0703	-84.877670
21375.0000	-84.891327
21377.9297	-84.910767
21380.8594	-84.894440
21383.7891	-84.919441
21386.7188	-84.907005
21389.6484	-84.847496
21392.5781	-84.918808
21395.5078	-85.023674
21398.4375	-85.050529
21401.3672	-85.043678
21404.2969	-85.035820
21407.2266	-85.038338
21410.1562	-85.054581
21413.0859	-85.091225
21416.0156	-85.132774
21418.9453	-85.153519
21421.8750	-85.163956
21424.8047	-85.191704
21427.7344	-85.190041
21430.6641	-85.155930
21433.5938	-85.160912
21436.5234	-85.214752
21439.4531	-85.250862
21442.3828	-85.232956
21445.3125	-85.228973
21448.2422	-85.261803
21451.1719	-85.274544
21454.1016	-85.265366
21457.0312	-85.264389
21459.9609	-85.300697
21462.8906	-85.352921
21465.8203	-85.362709
21468.7500	-85.352707
21471.6797	-85.361771
21474.6094	-85.373016
21477.5391	-85.396667
21480.4688	-85.391190
21483.3984	-85.384697
21486.3281	-85.455017
21489.2578	-85.508865
21492.1875	-85.488029
21495.1172	-85.482536
21498.0469	-85.485191
21500.9766	-85.474876
21503.9062	-85.479553
21506.8359	-85.508926
21509.7656	-85.538834
21512.6953	-85.538528
21515.6250	-85.528847
21518.5547	-85.527298
21521.4844	-85.546989
21524.4141	-85.589523
21527.3438	-85.641624
21530.2734	-85.667183
