;Freq(Hz)	Relative Amplitude (dB): Left
18949.2188	-79.913551
18952.1484	-79.906609
18955.0781	-79.922531
18958.0078	-79.982948
18960.9375	-80.035210
18963.8672	-80.093399
18966.7969	-80.133667
18969.7266	-80.132835
18972.6562	-80.139999
18975.5859	-80.170677
18978.5156	-80.197182
18981.4453	-80.219856
18984.3750	-80.270012
18987.3047	-80.313004
18990.2344	-80.335045
18993.1641	-80.373894
18996.0938	-80.381660
18999.0234	-80.362320
19001.9531	-80.394493
19004.8828	-80.446640
19007.8125	-80.467377
19010.7422	-80.493988
19013.6719	-80.557121
19016.6016	-80.627167
19019.5312	-80.690224
19022.4609	-80.734009
19025.3906	-80.735359
19028.3203	-80.746132
19031.2500	-80.806427
19034.1797	-80.883163
19037.1094	-80.944328
19040.0391	-80.960892
19042.9688	-80.961548
19045.8984	-80.980278
19048.8281	-80.978477
19051.7578	-80.988785
19054.6875	-81.062119
19057.6172	-81.167717
19060.5469	-81.217522
19063.4766	-81.203918
19066.4062	-81.226898
19069.3359	-81.292427
19072.2656	-81.356743
19075.1953	-81.394753
19078.1250	-81.382294
19081.0547	-81.400978
19083.9844	-81.438698
19086.9141	-81.451065
19089.8438	-81.498611
19092.7734	-81.552856
19095.7031	-81.615929
19098.6328	-81.684204
19101.5625	-81.696793
19104.4922	-81.716469
19107.4219	-81.760864
19110.3516	-81.828857
19113.2812	-81.895966
19116.2109	-81.893600
19119.1406	-81.866310
19122.0703	-81.895081
19125.0000	-81.969978
19127.9297	-82.046623
19130.8594	-82.076912
19133.7891	-82.068779
19136.7188	-82.104401
19139.6484	-82.138474
19142.5781	-82.149506
19145.5078	-82.215408
19148.4375	-82.295746
19151.3672	-82.341339
19154.2969	-82.377991
19157.2266	-82.404564
19160.1562	-82.432732
19163.0859	-82.478378
19166.0156	-82.519630
19168.9453	-82.591507
19171.8750	-82.639610
19174.8047	-82.633919
19177.7344	-82.685715
19180.6641	-82.767517
19183.5938	-82.801704
19186.5234	-82.817406
19189.4531	-82.850838
19192.3828	-82.890266
19195.3125	-82.957588
19198.2422	-83.067261
19201.1719	-83.127930
19204.1016	-83.139702
19207.0312	-83.193367
19209.9609	-83.248245
19212.8906	-83.276840
19215.8203	-83.341354
19218.7500	-83.385742
19221.6797	-83.393867
19224.6094	-83.426231
19227.5391	-83.478920
19230.4688	-83.538124
19233.3984	-83.568848
19236.3281	-83.609634
19239.2578	-83.707382
19242.1875	-83.785629
19245.1172	-83.809135
19248.0469	-83.875267
19250.9766	-83.983658
19253.9062	-84.073586
19256.8359	-84.143410
19259.7656	-84.202240
19262.6953	-84.285629
19265.6250	-84.369293
19268.5547	-84.422783
19271.4844	-84.458435
19274.4141	-84.499847
19277.3438	-84.594437
19280.2734	-84.698395
19283.2031	-84.778542
19286.1328	-84.829788
19289.0625	-84.856308
19291.9922	-84.938980
19294.9219	-85.025764
19297.8516	-85.087090
19300.7812	-85.156059
19303.7109	-85.240341
19306.6406	-85.333931
19309.5703	-85.407288
19312.5000	-85.504845
19315.4297	-85.594063
19318.3594	-85.666306
19321.2891	-85.763611
19324.2188	-85.821220
19327.1484	-85.869469
19330.0781	-85.972183
19333.0078	-86.083794
19335.9375	-86.206558
19338.8672	-86.297043
19341.7969	-86.325035
19344.7266	-86.337212
19347.6562	-86.414040
19350.5859	-86.599052
19353.5156	-86.688187
19356.4453	-86.734833
19359.3750	-86.899742
19362.3047	-86.987732
19365.2344	-86.982384
19368.1641	-87.025528
19371.0938	-87.102127
19374.0234	-87.116539
19376.9531	-87.115456
19379.8828	-87.200699
19382.8125	-87.239410
19385.7422	-87.242645
19388.6719	-87.275681
19391.6016	-87.257881
19394.5312	-87.291985
19397.4609	-87.384712
19400.3906	-87.488052
19403.3203	-87.514397
19406.2500	-87.477615
19409.1797	-87.484398
19412.1094	-87.506805
19415.0391	-87.598946
19417.9688	-87.741615
19420.8984	-87.794800
19423.8281	-87.823303
19426.7578	-87.948288
19429.6875	-88.065262
19432.6172	-88.124046
19435.5469	-88.220245
19438.4766	-88.379051
19441.4062	-88.549675
19444.3359	-88.599419
19447.2656	-88.579018
19450.1953	-88.663422
19453.1250	-88.762703
19456.0547	-88.806793
19458.9844	-88.880905
19461.9141	-88.974693
19464.8438	-89.039276
19467.7734	-89.160904
19470.7031	-89.332993
19473.6328	-89.360611
19476.5625	-89.330681
19479.4922	-89.457565
19482.4219	-89.602150
19485.3516	-89.725609
19488.2812	-89.951012
19491.2109	-90.100731
19494.1406	-90.195801
19497.0703	-90.412971
19500.0000	-90.544716
19502.9297	-90.549118
19505.8594	-90.661438
19508.7891	-90.842064
19511.7188	-90.981316
19514.6484	-91.077995
19517.5781	-91.291176
19520.5078	-91.588547
19523.4375	-91.649933
19526.3672	-91.643539
19529.2969	-91.885216
19532.2266	-92.071022
19535.1562	-92.200577
19538.0859	-92.509491
19541.0156	-92.786873
19543.9453	-92.877548
19546.8750	-92.979233
19549.8047	-93.200134
19552.7344	-93.413277
19555.6641	-93.573654
19558.5938	-93.668579
19561.5234	-93.806763
19564.4531	-94.066574
19567.3828	-94.335266
19570.3125	-94.547203
19573.2422	-94.843170
19576.1719	-95.136169
19579.1016	-95.446404
19582.0312	-95.801338
19584.9609	-95.999084
19587.8906	-96.130272
19590.8203	-96.274734
19593.7500	-96.630875
19596.6797	-97.067078
19599.6094	-97.326790
19602.5391	-97.791573
19605.4688	-98.365463
19608.3984	-98.807083
19611.3281	-99.324455
19614.2578	-99.662041
19617.1875	-99.662949
19620.1172	-100.165802
19623.0469	-100.859192
19625.9766	-101.222496
19628.9062	-101.717361
19631.8359	-102.055237
19634.7656	-102.414833
19637.6953	-103.070129
19640.6250	-104.046051
19643.5547	-105.004456
19646.4844	-105.841957
19649.4141	-106.333008
19652.3438	-106.833038
19655.2734	-108.130211
19658.2031	-110.608246
19661.1328	-113.024208
19664.0625	-114.468300
19666.9922	-117.707481
19669.9219	-120.602661
19672.8516	-121.326469
19675.7812	-118.427315
19678.7109	-118.718452
19681.6406	-121.843452
19684.5703	-115.305946
19687.5000	-111.978111
19690.4297	-111.198524
19693.3594	-109.685638
19696.2891	-107.656204
19699.2188	-107.034157
19702.1484	-106.694420
19705.0781	-105.889427
19708.0078	-105.254227
19710.9375	-104.342781
19713.8672	-103.342987
19716.7969	-102.674263
19719.7266	-101.852234
19722.6562	-101.166710
19725.5859	-100.547943
19728.5156	-99.990860
19731.4453	-99.764305
19734.3750	-99.394440
19737.3047	-98.791801
19740.2344	-98.241180
19743.1641	-97.959724
19746.0938	-97.710770
19749.0234	-97.358749
19751.9531	-96.975136
19754.8828	-96.614502
19757.8125	-96.219254
19760.7422	-95.870377
19763.6719	-95.713539
19766.6016	-95.443428
19769.5312	-95.089005
19772.4609	-94.861855
19775.3906	-94.651649
19778.3203	-94.348427
19781.2500	-94.032249
19784.1797	-93.865265
19787.1094	-93.543335
19790.0391	-93.198059
19792.9688	-93.121574
19795.8984	-92.982422
19798.8281	-92.668808
19801.7578	-92.408524
19804.6875	-92.237595
19807.6172	-92.076782
19810.5469	-91.859604
19813.4766	-91.634171
19816.4062	-91.460625
19819.3359	-91.295982
19822.2656	-91.083450
19825.1953	-90.775520
19828.1250	-90.493668
19831.0547	-90.258926
19833.9844	-90.113792
19836.9141	-90.101265
19839.8438	-90.075394
19842.7734	-90.029907
19845.7031	-89.878815
19848.6328	-89.642601
19851.5625	-89.454414
19854.4922	-89.242973
19857.4219	-89.044708
19860.3516	-88.908676
19863.2812	-88.807930
19866.2109	-88.688667
19869.1406	-88.519356
19872.0703	-88.409348
19875.0000	-88.269424
19877.9297	-88.050690
19880.8594	-87.839378
19883.7891	-87.698677
19886.7188	-87.615227
19889.6484	-87.506187
19892.5781	-87.392883
19895.5078	-87.291206
19898.4375	-87.128754
19901.3672	-87.014130
19904.2969	-86.961479
19907.2266	-86.799232
19910.1562	-86.597267
19913.0859	-86.408279
19916.0156	-86.279663
19918.9453	-86.242195
19921.8750	-86.192215
19924.8047	-86.039772
19927.7344	-85.840538
19930.6641	-85.694595
19933.5938	-85.617851
19936.5234	-85.569260
19939.4531	-85.509003
19942.3828	-85.377838
19945.3125	-85.213097
19948.2422	-85.082146
19951.1719	-84.984184
19954.1016	-84.903809
19957.0312	-84.768433
19959.9609	-84.628616
19962.8906	-84.552101
19965.8203	-84.487976
19968.7500	-84.375282
19971.6797	-84.242256
19974.6094	-84.151131
19977.5391	-84.066109
19980.4688	-83.963181
19983.3984	-83.894119
19986.3281	-83.857758
19989.2578	-83.752258
19992.1875	-83.623703
19995.1172	-83.536331
19998.0469	-83.431488
20000.9766	-83.339500
20003.9062	-83.252968
20006.8359	-83.167877
20009.7656	-83.101517
20012.6953	-82.993523
20015.6250	-82.846405
20018.5547	-82.737396
20021.4844	-82.652107
20024.4141	-82.567322
20027.3438	-82.517258
20030.2734	-82.463058
20033.2031	-82.402161
20036.1328	-82.330261
20039.0625	-82.231041
20041.9922	-82.138435
20044.9219	-82.069687
20047.8516	-82.024750
20050.7812	-81.934723
20053.7109	-81.820946
20056.6406	-81.727638
20059.5703	-81.650482
20062.5000	-81.576859
20065.4297	-81.487930
20068.3594	-81.378601
20071.2891	-81.309250
20074.2188	-81.240250
20077.1484	-81.128860
20080.0781	-81.057343
20083.0078	-81.022743
20085.9375	-80.944283
20088.8672	-80.825813
20091.7969	-80.756050
20094.7266	-80.713631
20097.6562	-80.644020
20100.5859	-80.536369
20103.5156	-80.433739
20106.4453	-80.374641
20109.3750	-80.328026
20112.3047	-80.239532
20115.2344	-80.128098
20118.1641	-80.072495
20121.0938	-80.014465
20124.0234	-79.912361
20126.9531	-79.820251
20129.8828	-79.764481
20132.8125	-79.724159
20135.7422	-79.660942
20138.6719	-79.607437
20141.6016	-79.549614
20144.5312	-79.435631
20147.4609	-79.351173
20150.3906	-79.329536
20153.3203	-79.291862
20156.2500	-79.232956
20159.1797	-79.156914
20162.1094	-79.052376
20165.0391	-78.949562
20167.9688	-78.900322
20170.8984	-78.873512
20173.8281	-78.786224
20176.7578	-78.687607
20179.6875	-78.641701
20182.6172	-78.621002
20185.5469	-78.539902
20188.4766	-78.423012
20191.4062	-78.355499
20194.3359	-78.284950
20197.2656	-78.193596
20200.1953	-78.140053
20203.1250	-78.094231
20206.0547	-78.027519
20208.9844	-77.964310
20211.9141	-77.924850
20214.8438	-77.872246
20217.7734	-77.786873
20220.7031	-77.706436
20223.6328	-77.646492
20226.5625	-77.605133
20229.4922	-77.548714
20232.4219	-77.479691
20235.3516	-77.398170
20238.2812	-77.298409
20241.2109	-77.218773
20244.1406	-77.155006
20247.0703	-77.109032
20250.0000	-77.074699
20252.9297	-77.036873
20255.8594	-76.970360
20258.7891	-76.877701
20261.7188	-76.821121
20264.6484	-76.792603
20267.5781	-76.732735
20270.5078	-76.639137
20273.4375	-76.566536
20276.3672	-76.527023
20279.2969	-76.485680
20282.2266	-76.429291
20285.1562	-76.357513
20288.0859	-76.289520
20291.0156	-76.223862
20293.9453	-76.148590
20296.8750	-76.087242
20299.8047	-76.050766
20302.7344	-76.016090
20305.6641	-75.979240
20308.5938	-75.916985
20311.5234	-75.822823
20314.4531	-75.746902
20317.3828	-75.699135
20320.3125	-75.648163
20323.2422	-75.587883
20326.1719	-75.510056
20329.1016	-75.436287
20332.0312	-75.388855
20334.9609	-75.340012
20337.8906	-75.268089
20340.8203	-75.192162
20343.7500	-75.140244
20346.6797	-75.097794
20349.6094	-75.040474
20352.5391	-74.979546
20355.4688	-74.929276
20358.3984	-74.890152
20361.3281	-74.862297
20364.2578	-74.814011
20367.1875	-74.751907
20370.1172	-74.713760
20373.0469	-74.657234
20375.9766	-74.591278
20378.9062	-74.551743
20381.8359	-74.520203
20384.7656	-74.489662
20387.6953	-74.445465
20390.6250	-74.382210
20393.5547	-74.343170
20396.4844	-74.352051
20399.4141	-74.334953
20402.3438	-74.273003
20405.2734	-74.229118
20408.2031	-74.210564
20411.1328	-74.183731
20414.0625	-74.146881
20416.9922	-74.122353
20419.9219	-74.090088
20422.8516	-74.038872
20425.7812	-73.998375
20428.7109	-73.974388
20431.6406	-73.960976
20434.5703	-73.946976
20437.5000	-73.910736
20440.4297	-73.862076
20443.3594	-73.828865
20446.2891	-73.810951
20449.2188	-73.770096
20452.1484	-73.720184
20455.0781	-73.690811
20458.0078	-73.657280
20460.9375	-73.618690
20463.8672	-73.572304
20466.7969	-73.518097
20469.7266	-73.474701
20472.6562	-73.453888
20475.5859	-73.427681
20478.5156	-73.379204
20481.4453	-73.347862
20484.3750	-73.314575
20487.3047	-73.278137
20490.2344	-73.234329
20493.1641	-73.173576
20496.0938	-73.112091
20499.0234	-73.062378
20501.9531	-73.023605
20504.8828	-72.981728
20507.8125	-72.940216
20510.7422	-72.893166
20513.6719	-72.833862
20516.6016	-72.771744
20519.5312	-72.717567
20522.4609	-72.665642
20525.3906	-72.610046
20528.3203	-72.556557
20531.2500	-72.507446
20534.1797	-72.466682
20537.1094	-72.432770
20540.0391	-72.392792
20542.9688	-72.353477
20545.8984	-72.309952
20548.8281	-72.254074
20551.7578	-72.211082
20554.6875	-72.159851
20557.6172	-72.099358
20560.5469	-72.060555
20563.4766	-72.027092
20566.4062	-71.973801
20569.3359	-71.915237
20572.2656	-71.871429
20575.1953	-71.817558
20578.1250	-71.761452
20581.0547	-71.722412
20583.9844	-71.679031
20586.9141	-71.634018
20589.8438	-71.593224
20592.7734	-71.536354
20595.7031	-71.470169
20598.6328	-71.408493
20601.5625	-71.363411
20604.4922	-71.339912
20607.4219	-71.300743
20610.3516	-71.236641
20613.2812	-71.182472
20616.2109	-71.148018
20619.1406	-71.100914
20622.0703	-71.034416
20625.0000	-70.991196
20627.9297	-70.956795
20630.8594	-70.902649
20633.7891	-70.850510
20636.7188	-70.796509
20639.6484	-70.741028
20642.5781	-70.703171
20645.5078	-70.662880
20648.4375	-70.604439
20651.3672	-70.550690
20654.2969	-70.520576
20657.2266	-70.481003
20660.1562	-70.426697
20663.0859	-70.365677
20666.0156	-70.314369
20668.9453	-70.261238
20671.8750	-70.190331
20674.8047	-70.135765
20677.7344	-70.096443
20680.6641	-70.037292
20683.5938	-69.968979
20686.5234	-69.917397
20689.4531	-69.861603
20692.3828	-69.793991
20695.3125	-69.732872
20698.2422	-69.674232
20701.1719	-69.621284
20704.1016	-69.584694
20707.0312	-69.541878
20709.9609	-69.487106
20712.8906	-69.442413
20715.8203	-69.410904
20718.7500	-69.379753
20721.6797	-69.340088
20724.6094	-69.297035
20727.5391	-69.259697
20730.4688	-69.232918
20733.3984	-69.212059
20736.3281	-69.186134
20739.2578	-69.151894
20742.1875	-69.111275
20745.1172	-69.072227
20748.0469	-69.043434
20750.9766	-69.013550
20753.9062	-68.970909
20756.8359	-68.932465
20759.7656	-68.906494
20762.6953	-68.876091
20765.6250	-68.837387
20768.5547	-68.798233
20771.4844	-68.760818
20774.4141	-68.728050
20777.3438	-68.697456
20780.2734	-68.658051
20783.2031	-68.614502
20786.1328	-68.577118
20789.0625	-68.540199
20791.9922	-68.503792
20794.9219	-68.475197
20797.8516	-68.444344
20800.7812	-68.407082
20803.7109	-68.362869
20806.6406	-68.316032
20809.5703	-68.275864
20812.5000	-68.238029
20815.4297	-68.203392
20818.3594	-68.164803
20821.2891	-68.129074
20824.2188	-68.105980
20827.1484	-68.060730
20830.0781	-67.994911
20833.0078	-67.937553
20835.9375	-67.892654
20838.8672	-67.855087
20841.7969	-67.799004
20844.7266	-67.745064
20847.6562	-67.702126
20850.5859	-67.648003
20853.5156	-67.598717
20856.4453	-67.552177
20859.3750	-67.495308
20862.3047	-67.440308
20865.2344	-67.403183
20868.1641	-67.361267
20871.0938	-67.306450
20874.0234	-67.257080
20876.9531	-67.209038
20879.8828	-67.165596
20882.8125	-67.120560
20885.7422	-67.061333
20888.6719	-67.010551
20891.6016	-66.971291
20894.5312	-66.915604
20897.4609	-66.859070
20900.3906	-66.816521
20903.3203	-66.780724
20906.2500	-66.745506
20909.1797	-66.688431
20912.1094	-66.624733
20915.0391	-66.577370
20917.9688	-66.536682
20920.8984	-66.500023
20923.8281	-66.455467
20926.7578	-66.402748
20929.6875	-66.358253
20932.6172	-66.316147
20935.5469	-66.270325
20938.4766	-66.224609
20941.4062	-66.192253
20944.3359	-66.175430
20947.2656	-66.133194
20950.1953	-66.061859
20953.1250	-66.014595
20956.0547	-65.983086
20958.9844	-65.930702
20961.9141	-65.876915
20964.8438	-65.828598
20967.7734	-65.788925
20970.7031	-65.746483
20973.6328	-65.681801
20976.5625	-65.622971
20979.4922	-65.574127
20982.4219	-65.516228
20985.3516	-65.469543
20988.2812	-65.425171
20991.2109	-65.361519
20994.1406	-65.307365
20997.0703	-65.271645
21000.0000	-65.227516
21002.9297	-65.171021
21005.8594	-65.118507
21008.7891	-65.073753
21011.7188	-65.026917
21014.6484	-64.974594
21017.5781	-64.930435
21020.5078	-64.900650
21023.4375	-64.865395
21026.3672	-64.814796
21029.2969	-64.764420
21032.2266	-64.718987
21035.1562	-64.668938
21038.0859	-64.622383
21041.0156	-64.587448
21043.9453	-64.547424
21046.8750	-64.486511
21049.8047	-64.431999
21052.7344	-64.396797
21055.6641	-64.354149
21058.5938	-64.301888
21061.5234	-64.242477
21064.4531	-64.184906
21067.3828	-64.146255
21070.3125	-64.103142
21073.2422	-64.055267
21076.1719	-64.013481
21079.1016	-63.959927
21082.0312	-63.908825
21084.9609	-63.854614
21087.8906	-63.803635
21090.8203	-63.765327
21093.7500	-63.736656
21096.6797	-63.687405
21099.6094	-63.610435
21102.5391	-63.542019
21105.4688	-63.488361
21108.3984	-63.426975
21111.3281	-63.372021
21114.2578	-63.326008
21117.1875	-63.278194
21120.1172	-63.226498
21123.0469	-63.176445
21125.9766	-63.130653
21128.9062	-63.072807
21131.8359	-63.002743
21134.7656	-62.940704
21137.6953	-62.896870
21140.6250	-62.849716
21143.5547	-62.781994
21146.4844	-62.714344
21149.4141	-62.666470
21152.3438	-62.618481
21155.2734	-62.560867
21158.2031	-62.507351
21161.1328	-62.458931
21164.0625	-62.405220
21166.9922	-62.348328
21169.9219	-62.298466
21172.8516	-62.243893
21175.7812	-62.183464
21178.7109	-62.129765
21181.6406	-62.079533
21184.5703	-62.030254
21187.5000	-61.980602
21190.4297	-61.932552
21193.3594	-61.888359
21196.2891	-61.838089
21199.2188	-61.773952
21202.1484	-61.710930
21205.0781	-61.662773
21208.0078	-61.609123
21210.9375	-61.547791
21213.8672	-61.492664
21216.7969	-61.438000
21219.7266	-61.385258
21222.6562	-61.329029
21225.5859	-61.262833
21228.5156	-61.196980
21231.4453	-61.147686
21234.3750	-61.098225
21237.3047	-61.033829
21240.2344	-60.962177
21243.1641	-60.909344
21246.0938	-60.873814
21249.0234	-60.823235
21251.9531	-60.760208
21254.8828	-60.683136
21257.8125	-60.609684
21260.7422	-60.564064
21263.6719	-60.523056
21266.6016	-60.460751
21269.5312	-60.388634
21272.4609	-60.327511
21275.3906	-60.272018
21278.3203	-60.221764
21281.2500	-60.170029
21284.1797	-60.101688
21287.1094	-60.030197
21290.0391	-59.976051
21292.9688	-59.936680
21295.8984	-59.893532
21298.8281	-59.833656
21301.7578	-59.765888
21304.6875	-59.706917
21307.6172	-59.653095
21310.5469	-59.598248
21313.4766	-59.542744
21316.4062	-59.485538
21319.3359	-59.422874
21322.2656	-59.352993
21325.1953	-59.290131
21328.1250	-59.240711
21331.0547	-59.187725
21333.9844	-59.124474
21336.9141	-59.059975
21339.8438	-58.999603
21342.7734	-58.938236
21345.7031	-58.873230
21348.6328	-58.800991
21351.5625	-58.723141
21354.4922	-58.644596
21357.4219	-58.571941
21360.3516	-58.503445
21363.2812	-58.439568
21366.2109	-58.378052
21369.1406	-58.308475
21372.0703	-58.232624
21375.0000	-58.163704
21377.9297	-58.097420
21380.8594	-58.024029
21383.7891	-57.950455
21386.7188	-57.881523
21389.6484	-57.808346
21392.5781	-57.728886
21395.5078	-57.656212
21398.4375	-57.585098
21401.3672	-57.502426
21404.2969	-57.419117
21407.2266	-57.345974
21410.1562	-57.279099
21413.0859	-57.208965
21416.0156	-57.135746
21418.9453	-57.066628
21421.8750	-56.997623
21424.8047	-56.921997
21427.7344	-56.846268
21430.6641	-56.773304
21433.5938	-56.697956
21436.5234	-56.618782
21439.4531	-56.537395
21442.3828	-56.454109
21445.3125	-56.375774
21448.2422	-56.317097
21451.1719	-56.258953
21454.1016	-56.188232
21457.0312	-56.107876
21459.9609	-56.024082
21462.8906	-55.940971
21465.8203	-55.854218
21468.7500	-55.779758
21471.6797	-55.710945
21474.6094	-55.635941
21477.5391	-55.555733
21480.4688	-55.465195
21483.3984	-55.371620
21486.3281	-55.280968
21489.2578	-55.189976
21492.1875	-55.096279
21495.1172	-55.003963
21498.0469	-54.911659
21500.9766	-54.822659
21503.9062	-54.740807
21506.8359	-54.660999
21509.7656	-54.584309
21512.6953	-54.494541
21515.6250	-54.389469
21518.5547	-54.287846
21521.4844	-54.189198
21524.4141	-54.094070
21527.3438	-54.007172
21530.2734	-53.928146
21533.2031	-53.850155
21536.1328	-53.768909
21539.0625	-53.680595
21541.9922	-53.575565
21544.9219	-53.465744
21547.8516	-53.372707
21550.7812	-53.288002
21553.7109	-53.193111
21556.6406	-53.093925
21559.5703	-52.995770
21562.5000	-52.892647
21565.4297	-52.787159
21568.3594	-52.683388
21571.2891	-52.574478
21574.2188	-52.459614
21577.1484	-52.347431
21580.0781	-52.243401
21583.0078	-52.147552
21585.9375	-52.044235
21588.8672	-51.937580
21591.7969	-51.845016
21594.7266	-51.746323
21597.6562	-51.637672
21600.5859	-51.525673
21603.5156	-51.405697
21606.4453	-51.289104
21609.3750	-51.165226
21612.3047	-51.040695
21615.2344	-50.917873
21618.1641	-50.790722
21621.0938	-50.658253
21624.0234	-50.524216
21626.9531	-50.390602
21629.8828	-50.246208
21632.8125	-50.093876
21635.7422	-49.951027
21638.6719	-49.807491
21641.6016	-49.656956
21644.5312	-49.510784
21647.4609	-49.370350
21650.3906	-49.233353
21653.3203	-49.098820
21656.2500	-48.967476
21659.1797	-48.831097
21662.1094	-48.686069
21665.0391	-48.539757
21667.9688	-48.392666
21670.8984	-48.239075
21673.8281	-48.080395
21676.7578	-47.920952
21679.6875	-47.756428
21682.6172	-47.591030
21685.5469	-47.426697
21688.4766	-47.255718
21691.4062	-47.089069
21694.3359	-46.928020
21697.2656	-46.750950
21700.1953	-46.557316
21703.1250	-46.364460
21706.0547	-46.175652
21708.9844	-45.986462
21711.9141	-45.795280
21714.8438	-45.595398
21717.7734	-45.392475
21720.7031	-45.198864
21723.6328	-45.009144
21726.5625	-44.806847
21729.4922	-44.599163
21732.4219	-44.388016
21735.3516	-44.168194
21738.2812	-43.941525
21741.2109	-43.707504
21744.1406	-43.463303
21747.0703	-43.210880
21750.0000	-42.957390
21752.9297	-42.705273
21755.8594	-42.446529
21758.7891	-42.173267
21761.7188	-41.893734
21764.6484	-41.612274
21767.5781	-41.316135
21770.5078	-41.013039
21773.4375	-40.713219
21776.3672	-40.413624
21779.2969	-40.112915
21782.2266	-39.800423
21785.1562	-39.479210
21788.0859	-39.161144
21791.0156	-38.839676
21793.9453	-38.506844
21796.8750	-38.173321
21799.8047	-37.842457
21802.7344	-37.504856
21805.6641	-37.168919
21808.5938	-36.843857
21811.5234	-36.525177
21814.4531	-36.211979
21817.3828	-35.911545
21820.3125	-35.640690
21823.2422	-35.401512
21826.1719	-35.182911
21829.1016	-34.986423
21832.0312	-34.838924
21834.9609	-34.743687
21837.8906	-34.697472
21840.8203	-34.707531
21843.7500	-34.768761
21846.6797	-34.869812
21849.6094	-35.013260
21852.5391	-35.205357
21855.4688	-35.432419
21858.3984	-35.680145
21861.3281	-35.954445
21864.2578	-36.247837
21867.1875	-36.551373
21870.1172	-36.870110
21873.0469	-37.196045
21875.9766	-37.519276
21878.9062	-37.840244
21881.8359	-38.164772
21884.7656	-38.493710
21887.6953	-38.823380
21890.6250	-39.145184
21893.5547	-39.458920
21896.4844	-39.765690
21899.4141	-40.055077
21902.3438	-40.337433
21905.2734	-40.622993
21908.2031	-40.902985
21911.1328	-41.171638
21914.0625	-41.433090
21916.9922	-41.686127
21919.9219	-41.925564
21922.8516	-42.161633
21925.7812	-42.400669
21928.7109	-42.633270
21931.6406	-42.858269
21934.5703	-43.079834
21937.5000	-43.289551
21940.4297	-43.489235
21943.3594	-43.689888
21946.2891	-43.885296
21949.2188	-44.083878
21952.1484	-44.289597
21955.0781	-44.482944
21958.0078	-44.666931
21960.9375	-44.850964
21963.8672	-45.029671
21966.7969	-45.204414
21969.7266	-45.382545
21972.6562	-45.557217
21975.5859	-45.724792
21978.5156	-45.894852
21981.4453	-46.062729
21984.3750	-46.222305
21987.3047	-46.378460
21990.2344	-46.532772
21993.1641	-46.686897
21996.0938	-46.834698
21999.0234	-46.970497
22001.9531	-47.113724
22004.8828	-47.269680
22007.8125	-47.407032
22010.7422	-47.531635
22013.6719	-47.660263
22016.6016	-47.792900
22019.5312	-47.937267
22022.4609	-48.077114
22025.3906	-48.196583
22028.3203	-48.305042
22031.2500	-48.412136
22034.1797	-48.517696
22037.1094	-48.622757
22040.0391	-48.730980
22042.9688	-48.840286
22045.8984	-48.950306
22048.8281	-49.056633
