;Freq(Hz)	Relative Amplitude (dB): Left
18445.3125	-86.246086
18448.2422	-86.273041
18451.1719	-86.299789
18454.1016	-86.267960
18457.0312	-86.255768
18459.9609	-86.290619
18462.8906	-86.297668
18465.8203	-86.289558
18468.7500	-86.323639
18471.6797	-86.319038
18474.6094	-86.271782
18477.5391	-86.265770
18480.4688	-86.267517
18483.3984	-86.283630
18486.3281	-86.339027
18489.2578	-86.373474
18492.1875	-86.358917
18495.1172	-86.353943
18498.0469	-86.384140
18500.9766	-86.387421
18503.9062	-86.358772
18506.8359	-86.335052
18509.7656	-86.326752
18512.6953	-86.346382
18515.6250	-86.388741
18518.5547	-86.419189
18521.4844	-86.407753
18524.4141	-86.402443
18527.3438	-86.429131
18530.2734	-86.457100
18533.2031	-86.472481
18536.1328	-86.472519
18539.0625	-86.472855
18541.9922	-86.471550
18544.9219	-86.464050
18547.8516	-86.490601
18550.7812	-86.548172
18553.7109	-86.564156
18556.6406	-86.549179
18559.5703	-86.566780
18562.5000	-86.581245
18565.4297	-86.587143
18568.3594	-86.602493
18571.2891	-86.585289
18574.2188	-86.567558
18577.1484	-86.611664
18580.0781	-86.648567
18583.0078	-86.641518
18585.9375	-86.644592
18588.8672	-86.648964
18591.7969	-86.653145
18594.7266	-86.658020
18597.6562	-86.690033
18600.5859	-86.747963
18603.5156	-86.770912
18606.4453	-86.795525
18609.3750	-86.820122
18612.3047	-86.797440
18615.2344	-86.801208
18618.1641	-86.826736
18621.0938	-86.825401
18624.0234	-86.837700
18626.9531	-86.874649
18629.8828	-86.879684
18632.8125	-86.890884
18635.7422	-86.906754
18638.6719	-86.855515
18641.6016	-86.849785
18644.5312	-86.919487
18647.4609	-86.946564
18650.3906	-86.919479
18653.3203	-86.870575
18656.2500	-86.851059
18659.1797	-86.902092
18662.1094	-86.941010
18665.0391	-86.929558
18667.9688	-86.921822
18670.8984	-86.928490
18673.8281	-86.910194
18676.7578	-86.901390
18679.6875	-86.906342
18682.6172	-86.906517
18685.5469	-86.928223
18688.4766	-86.948273
18691.4062	-86.921349
18694.3359	-86.931374
18697.2656	-86.985550
18700.1953	-86.981720
18703.1250	-86.933037
18706.0547	-86.932747
18708.9844	-86.975784
18711.9141	-86.975212
18714.8438	-86.995888
18717.7734	-87.050209
18720.7031	-87.052734
18723.6328	-87.023918
18726.5625	-86.998871
18729.4922	-86.987663
18732.4219	-87.021156
18735.3516	-87.065826
18738.2812	-87.059784
18741.2109	-87.033539
18744.1406	-87.024467
18747.0703	-87.023628
18750.0000	-87.040298
18752.9297	-87.076141
18755.8594	-87.096825
18758.7891	-87.088387
18761.7188	-87.070641
18764.6484	-87.075829
18767.5781	-87.101913
18770.5078	-87.135963
18773.4375	-87.152657
18776.3672	-87.136452
18779.2969	-87.138420
18782.2266	-87.154800
18785.1562	-87.160583
18788.0859	-87.180222
18791.0156	-87.179565
18793.9453	-87.185989
18796.8750	-87.208023
18799.8047	-87.183723
18802.7344	-87.196358
18805.6641	-87.258842
18808.5938	-87.267532
18811.5234	-87.247223
18814.4531	-87.257820
18817.3828	-87.259972
18820.3125	-87.258217
18823.2422	-87.255646
18826.1719	-87.255898
18829.1016	-87.304131
18832.0312	-87.336433
18834.9609	-87.309418
18837.8906	-87.307945
18840.8203	-87.352844
18843.7500	-87.377625
18846.6797	-87.378517
18849.6094	-87.413002
18852.5391	-87.454941
18855.4688	-87.442696
18858.3984	-87.429085
18861.3281	-87.453232
18864.2578	-87.475883
18867.1875	-87.471535
18870.1172	-87.453651
18873.0469	-87.467003
18875.9766	-87.490929
18878.9062	-87.478409
18881.8359	-87.480492
18884.7656	-87.527847
18887.6953	-87.573204
18890.6250	-87.583023
18893.5547	-87.574326
18896.4844	-87.597794
18899.4141	-87.636253
18902.3438	-87.617828
18905.2734	-87.590912
18908.2031	-87.618233
18911.1328	-87.652412
18914.0625	-87.666786
18916.9922	-87.677956
18919.9219	-87.707748
18922.8516	-87.718925
18925.7812	-87.709343
18928.7109	-87.747406
18931.6406	-87.780243
18934.5703	-87.774139
18937.5000	-87.783585
18940.4297	-87.782524
18943.3594	-87.781281
18946.2891	-87.799980
18949.2188	-87.809319
18952.1484	-87.827713
18955.0781	-87.850594
18958.0078	-87.856499
18960.9375	-87.896568
18963.8672	-87.970581
18966.7969	-87.978073
18969.7266	-88.007050
18972.6562	-88.039864
18975.5859	-88.008049
18978.5156	-88.039406
18981.4453	-88.031227
18984.3750	-88.060295
18987.3047	-88.080383
18990.2344	-88.047691
18993.1641	-88.086281
18996.0938	-88.095009
18999.0234	-88.090042
19001.9531	-88.106323
19004.8828	-88.093376
19007.8125	-88.091415
19010.7422	-88.108589
19013.6719	-88.108948
19016.6016	-88.130470
19019.5312	-88.136459
19022.4609	-88.132027
19025.3906	-88.099373
19028.3203	-88.054993
19031.2500	-88.099312
19034.1797	-88.150246
19037.1094	-88.174347
19040.0391	-88.224915
19042.9688	-88.293663
19045.8984	-88.338585
19048.8281	-88.316902
19051.7578	-88.280624
19054.6875	-88.277222
19057.6172	-88.274155
19060.5469	-88.280479
19063.4766	-88.278091
19066.4062	-88.310005
19069.3359	-88.369759
19072.2656	-88.346901
19075.1953	-88.282806
19078.1250	-88.272995
19081.0547	-88.353912
19083.9844	-88.423706
19086.9141	-88.395920
19089.8438	-88.413521
19092.7734	-88.476234
19095.7031	-88.500481
19098.6328	-88.528610
19101.5625	-88.518806
19104.4922	-88.470894
19107.4219	-88.453659
19110.3516	-88.467644
19113.2812	-88.522575
19116.2109	-88.515526
19119.1406	-88.447975
19122.0703	-88.472992
19125.0000	-88.518997
19127.9297	-88.510445
19130.8594	-88.530663
19133.7891	-88.621078
19136.7188	-88.665756
19139.6484	-88.664818
19142.5781	-88.715401
19145.5078	-88.755264
19148.4375	-88.773651
19151.3672	-88.775101
19154.2969	-88.771172
19157.2266	-88.756996
19160.1562	-88.726357
19163.0859	-88.748314
19166.0156	-88.818565
19168.9453	-88.867134
19171.8750	-88.877808
19174.8047	-88.854218
19177.7344	-88.854286
19180.6641	-88.891136
19183.5938	-88.912437
19186.5234	-88.947739
19189.4531	-89.033142
19192.3828	-89.092857
19195.3125	-89.064796
19198.2422	-89.055405
19201.1719	-89.060036
19204.1016	-89.012772
19207.0312	-89.029243
19209.9609	-89.051018
19212.8906	-89.023911
19215.8203	-89.031372
19218.7500	-89.098778
19221.6797	-89.207016
19224.6094	-89.238190
19227.5391	-89.217285
19230.4688	-89.245148
19233.3984	-89.280739
19236.3281	-89.268135
19239.2578	-89.280365
19242.1875	-89.329994
19245.1172	-89.378510
19248.0469	-89.410309
19250.9766	-89.399811
19253.9062	-89.408058
19256.8359	-89.422554
19259.7656	-89.438812
19262.6953	-89.460861
19265.6250	-89.473358
19268.5547	-89.547272
19271.4844	-89.651161
19274.4141	-89.654808
19277.3438	-89.590569
19280.2734	-89.588982
19283.2031	-89.654816
19286.1328	-89.691307
19289.0625	-89.702065
19291.9922	-89.721123
19294.9219	-89.684410
19297.8516	-89.727203
19300.7812	-89.831215
19303.7109	-89.811256
19306.6406	-89.751884
19309.5703	-89.757874
19312.5000	-89.786919
19315.4297	-89.829338
19318.3594	-89.839645
19321.2891	-89.801880
19324.2188	-89.770500
19327.1484	-89.828590
19330.0781	-89.963493
19333.0078	-89.997200
19335.9375	-89.971512
19338.8672	-89.974533
19341.7969	-89.972923
19344.7266	-89.993965
19347.6562	-90.044037
19350.5859	-90.140976
19353.5156	-90.179314
19356.4453	-90.202370
19359.3750	-90.293060
19362.3047	-90.322617
19365.2344	-90.359146
19368.1641	-90.418274
19371.0938	-90.415359
19374.0234	-90.413132
19376.9531	-90.443909
19379.8828	-90.460007
19382.8125	-90.410370
19385.7422	-90.368912
19388.6719	-90.400917
19391.6016	-90.492035
19394.5312	-90.573021
19397.4609	-90.567810
19400.3906	-90.616158
19403.3203	-90.722420
19406.2500	-90.736000
19409.1797	-90.752579
19412.1094	-90.770996
19415.0391	-90.716873
19417.9688	-90.751328
19420.8984	-90.845039
19423.8281	-90.853889
19426.7578	-90.881500
19429.6875	-90.991020
19432.6172	-91.136200
19435.5469	-91.188240
19438.4766	-91.164001
19441.4062	-91.208206
19444.3359	-91.216202
19447.2656	-91.224518
19450.1953	-91.233109
19453.1250	-91.199844
19456.0547	-91.232941
19458.9844	-91.363106
19461.9141	-91.511772
19464.8438	-91.563690
19467.7734	-91.506516
19470.7031	-91.524422
19473.6328	-91.639915
19476.5625	-91.656448
19479.4922	-91.619072
19482.4219	-91.663300
19485.3516	-91.815018
19488.2812	-91.874916
19491.2109	-91.880112
19494.1406	-92.010910
19497.0703	-92.009850
19500.0000	-91.942894
19502.9297	-92.058105
19505.8594	-92.189430
19508.7891	-92.187996
19511.7188	-92.121368
19514.6484	-92.145363
19517.5781	-92.243675
19520.5078	-92.307549
19523.4375	-92.316467
19526.3672	-92.363182
19529.2969	-92.448883
19532.2266	-92.462692
19535.1562	-92.467392
19538.0859	-92.533012
19541.0156	-92.584892
19543.9453	-92.713066
19546.8750	-92.840958
19549.8047	-92.829430
19552.7344	-92.812927
19555.6641	-92.843384
19558.5938	-92.878967
19561.5234	-92.907860
19564.4531	-93.014465
19567.3828	-93.125961
19570.3125	-93.136665
19573.2422	-93.181351
19576.1719	-93.271217
19579.1016	-93.276512
19582.0312	-93.287048
19584.9609	-93.443932
19587.8906	-93.624435
19590.8203	-93.622963
19593.7500	-93.527443
19596.6797	-93.552193
19599.6094	-93.756142
19602.5391	-93.903114
19605.4688	-93.889633
19608.3984	-93.940277
19611.3281	-94.069855
19614.2578	-94.225807
19617.1875	-94.450851
19620.1172	-94.506187
19623.0469	-94.416748
19625.9766	-94.511559
19628.9062	-94.632362
19631.8359	-94.691856
19634.7656	-94.743370
19637.6953	-94.722710
19640.6250	-94.796410
19643.5547	-94.995323
19646.4844	-95.146149
19649.4141	-95.206871
19652.3438	-95.308456
19655.2734	-95.448753
19658.2031	-95.675331
19661.1328	-95.987244
19664.0625	-96.098099
19666.9922	-96.089890
19669.9219	-96.128746
19672.8516	-96.087379
19675.7812	-96.030472
19678.7109	-96.289253
19681.6406	-96.632767
19684.5703	-96.640862
19687.5000	-96.634750
19690.4297	-96.805779
19693.3594	-97.007454
19696.2891	-97.187767
19699.2188	-97.350548
19702.1484	-97.436523
19705.0781	-97.614944
19708.0078	-97.829643
19710.9375	-97.966873
19713.8672	-98.290016
19716.7969	-98.531418
19719.7266	-98.545387
19722.6562	-98.759018
19725.5859	-99.001518
19728.5156	-98.995071
19731.4453	-99.017403
19734.3750	-99.337143
19737.3047	-99.705551
19740.2344	-99.928185
19743.1641	-100.263702
19746.0938	-100.604454
19749.0234	-100.759674
19751.9531	-101.119209
19754.8828	-101.619164
19757.8125	-102.045395
19760.7422	-102.450256
19763.6719	-102.567886
19766.6016	-102.507782
19769.5312	-102.759132
19772.4609	-103.511864
19775.3906	-104.186928
19778.3203	-104.574783
19781.2500	-105.284943
19784.1797	-105.871254
19787.1094	-106.089478
19790.0391	-106.406937
19792.9688	-106.946350
19795.8984	-107.923080
19798.8281	-108.951874
19801.7578	-110.045990
19804.6875	-110.460190
19807.6172	-110.559959
19810.5469	-112.610909
19813.4766	-115.943642
19816.4062	-117.384621
19819.3359	-120.424606
19822.2656	-123.410706
19825.1953	-121.476845
19828.1250	-118.587311
19831.0547	-118.514229
19833.9844	-116.580650
19836.9141	-114.099426
19839.8438	-112.523689
19842.7734	-110.970322
19845.7031	-109.529022
19848.6328	-107.899727
19851.5625	-106.652794
19854.4922	-106.138931
19857.4219	-105.791451
19860.3516	-105.504677
19863.2812	-104.857071
19866.2109	-103.523140
19869.1406	-102.437447
19872.0703	-101.866074
19875.0000	-101.374954
19877.9297	-100.813103
19880.8594	-100.351959
19883.7891	-99.962349
19886.7188	-99.445831
19889.6484	-98.910858
19892.5781	-98.403999
19895.5078	-97.831688
19898.4375	-97.309250
19901.3672	-96.912430
19904.2969	-96.574677
19907.2266	-96.176208
19910.1562	-95.770622
19913.0859	-95.552765
19916.0156	-95.315666
19918.9453	-94.817398
19921.8750	-94.291756
19924.8047	-93.897240
19927.7344	-93.644135
19930.6641	-93.381493
19933.5938	-92.979240
19936.5234	-92.638428
19939.4531	-92.424919
19942.3828	-92.129974
19945.3125	-91.694084
19948.2422	-91.332901
19951.1719	-91.130287
19954.1016	-90.860252
19957.0312	-90.566711
19959.9609	-90.269707
19962.8906	-89.873390
19965.8203	-89.539627
19968.7500	-89.240318
19971.6797	-88.958496
19974.6094	-88.698753
19977.5391	-88.402122
19980.4688	-88.095299
19983.3984	-87.795517
19986.3281	-87.521812
19989.2578	-87.228897
19992.1875	-86.939232
19995.1172	-86.652985
19998.0469	-86.313309
20000.9766	-86.009537
20003.9062	-85.744110
20006.8359	-85.417419
20009.7656	-85.087280
20012.6953	-84.832779
20015.6250	-84.573212
20018.5547	-84.283218
20021.4844	-84.000397
20024.4141	-83.681030
20027.3438	-83.353432
20030.2734	-83.069054
20033.2031	-82.774628
20036.1328	-82.441467
20039.0625	-82.104965
20041.9922	-81.792076
20044.9219	-81.503784
20047.8516	-81.192268
20050.7812	-80.874985
20053.7109	-80.560623
20056.6406	-80.236572
20059.5703	-79.930817
20062.5000	-79.611862
20065.4297	-79.264420
20068.3594	-78.910980
20071.2891	-78.539726
20074.2188	-78.161224
20077.1484	-77.776466
20080.0781	-77.400429
20083.0078	-77.033813
20085.9375	-76.648178
20088.8672	-76.252350
20091.7969	-75.854713
20094.7266	-75.444946
20097.6562	-75.008781
20100.5859	-74.558510
20103.5156	-74.115219
20106.4453	-73.648087
20109.3750	-73.150185
20112.3047	-72.642365
20115.2344	-72.121948
20118.1641	-71.564972
20121.0938	-70.973297
20124.0234	-70.371033
20126.9531	-69.731483
20129.8828	-69.045616
20132.8125	-68.320107
20135.7422	-67.543526
20138.6719	-66.686417
20141.6016	-65.751526
20144.5312	-64.746635
20147.4609	-63.624668
20150.3906	-62.360760
20153.3203	-60.897751
20156.2500	-59.194996
20159.1797	-57.095280
20162.1094	-54.479195
20165.0391	-51.165340
20167.9688	-47.986027
20170.8984	-47.092529
20173.8281	-48.885513
20176.7578	-52.216919
20179.6875	-55.157444
20182.6172	-57.371578
20185.5469	-59.148754
20188.4766	-60.606220
20191.4062	-61.855873
20194.3359	-62.920643
20197.2656	-63.844418
20200.1953	-64.664429
20203.1250	-65.419998
20206.0547	-66.107765
20208.9844	-66.724457
20211.9141	-67.292778
20214.8438	-67.828125
20217.7734	-68.329704
20220.7031	-68.791161
20223.6328	-69.215378
20226.5625	-69.617088
20229.4922	-70.000954
20232.4219	-70.359398
20235.3516	-70.692467
20238.2812	-71.020554
20241.2109	-71.345932
20244.1406	-71.642693
20247.0703	-71.913101
20250.0000	-72.177071
20252.9297	-72.437897
20255.8594	-72.694107
20258.7891	-72.944611
20261.7188	-73.172523
20264.6484	-73.374329
20267.5781	-73.575607
20270.5078	-73.787918
20273.4375	-74.007202
20276.3672	-74.209595
20279.2969	-74.396355
20282.2266	-74.575752
20285.1562	-74.750328
20288.0859	-74.932976
20291.0156	-75.107101
20293.9453	-75.266380
20296.8750	-75.425293
20299.8047	-75.582298
20302.7344	-75.742577
20305.6641	-75.885483
20308.5938	-76.018013
20311.5234	-76.161369
20314.4531	-76.282005
20317.3828	-76.392387
20320.3125	-76.517555
20323.2422	-76.641609
20326.1719	-76.748138
20329.1016	-76.848549
20332.0312	-76.973083
20334.9609	-77.106415
20337.8906	-77.207527
20340.8203	-77.296196
20343.7500	-77.391823
20346.6797	-77.503265
20349.6094	-77.607292
20352.5391	-77.676270
20355.4688	-77.766968
20358.3984	-77.886002
20361.3281	-77.968437
20364.2578	-78.030624
20367.1875	-78.112282
20370.1172	-78.206558
20373.0469	-78.283592
20375.9766	-78.352768
20378.9062	-78.429108
20381.8359	-78.514526
20384.7656	-78.623566
20387.6953	-78.709747
20390.6250	-78.770393
20393.5547	-78.853928
20396.4844	-78.942566
20399.4141	-78.998993
20402.3438	-79.050858
20405.2734	-79.129143
20408.2031	-79.202499
20411.1328	-79.263885
20414.0625	-79.328445
20416.9922	-79.398468
20419.9219	-79.470634
20422.8516	-79.535263
20425.7812	-79.592361
20428.7109	-79.653610
20431.6406	-79.733719
20434.5703	-79.807480
20437.5000	-79.865417
20440.4297	-79.926559
20443.3594	-79.992073
20446.2891	-80.055115
20449.2188	-80.103729
20452.1484	-80.158012
20455.0781	-80.221436
20458.0078	-80.285759
20460.9375	-80.343727
20463.8672	-80.393929
20466.7969	-80.446228
20469.7266	-80.503860
20472.6562	-80.558983
20475.5859	-80.587151
20478.5156	-80.622993
20481.4453	-80.688171
20484.3750	-80.743172
20487.3047	-80.776169
20490.2344	-80.823250
20493.1641	-80.895569
20496.0938	-80.966873
20499.0234	-81.035942
20501.9531	-81.080818
20504.8828	-81.097954
20507.8125	-81.148972
20510.7422	-81.221497
20513.6719	-81.266640
20516.6016	-81.312706
20519.5312	-81.357086
20522.4609	-81.401260
20525.3906	-81.461304
20528.3203	-81.505951
20531.2500	-81.525406
20534.1797	-81.541214
20537.1094	-81.582443
20540.0391	-81.622787
20542.9688	-81.650246
20545.8984	-81.681824
20548.8281	-81.724503
20551.7578	-81.761673
20554.6875	-81.790428
20557.6172	-81.823082
20560.5469	-81.827423
20563.4766	-81.836205
20566.4062	-81.890282
20569.3359	-81.947838
20572.2656	-81.997086
20575.1953	-82.035812
20578.1250	-82.074783
20581.0547	-82.094902
20583.9844	-82.081787
20586.9141	-82.109985
20589.8438	-82.169785
20592.7734	-82.202446
20595.7031	-82.215050
20598.6328	-82.229263
20601.5625	-82.253647
20604.4922	-82.306602
20607.4219	-82.343620
20610.3516	-82.352531
20613.2812	-82.363724
20616.2109	-82.375015
20619.1406	-82.425018
20622.0703	-82.477661
20625.0000	-82.480614
20627.9297	-82.496872
20630.8594	-82.541534
20633.7891	-82.578705
20636.7188	-82.622368
20639.6484	-82.656311
20642.5781	-82.670273
20645.5078	-82.708961
20648.4375	-82.741135
20651.3672	-82.735321
20654.2969	-82.755547
20657.2266	-82.801781
20660.1562	-82.825676
20663.0859	-82.847145
20666.0156	-82.871773
20668.9453	-82.893707
20671.8750	-82.925880
20674.8047	-82.953720
20677.7344	-82.958694
20680.6641	-82.975594
20683.5938	-83.027496
20686.5234	-83.042175
20689.4531	-83.031822
20692.3828	-83.065910
20695.3125	-83.131538
20698.2422	-83.189743
20701.1719	-83.201805
20704.1016	-83.180237
20707.0312	-83.194557
20709.9609	-83.244820
20712.8906	-83.283409
20715.8203	-83.284271
20718.7500	-83.313721
20721.6797	-83.363129
20724.6094	-83.372429
20727.5391	-83.385597
20730.4688	-83.407280
20733.3984	-83.414474
20736.3281	-83.442741
20739.2578	-83.488220
20742.1875	-83.508072
20745.1172	-83.504639
20748.0469	-83.545876
20750.9766	-83.609146
20753.9062	-83.615105
20756.8359	-83.611824
20759.7656	-83.634476
20762.6953	-83.673454
20765.6250	-83.725235
20768.5547	-83.740074
20771.4844	-83.732231
20774.4141	-83.755219
20777.3438	-83.771751
20780.2734	-83.767471
20783.2031	-83.784172
20786.1328	-83.838219
20789.0625	-83.895111
20791.9922	-83.909081
20794.9219	-83.928162
20797.8516	-83.967117
20800.7812	-83.976440
20803.7109	-83.969627
20806.6406	-83.984024
20809.5703	-84.017929
20812.5000	-84.052719
20815.4297	-84.084473
20818.3594	-84.098221
20821.2891	-84.109734
20824.2188	-84.156990
20827.1484	-84.208702
20830.0781	-84.244331
20833.0078	-84.257973
20835.9375	-84.256180
20838.8672	-84.247688
20841.7969	-84.234276
20844.7266	-84.236809
20847.6562	-84.269318
20850.5859	-84.288849
20853.5156	-84.295242
20856.4453	-84.324287
20859.3750	-84.345093
20862.3047	-84.331421
20865.2344	-84.347504
20868.1641	-84.394478
20871.0938	-84.415611
20874.0234	-84.419388
20876.9531	-84.408211
20879.8828	-84.412659
20882.8125	-84.444916
20885.7422	-84.476212
20888.6719	-84.509384
20891.6016	-84.525826
20894.5312	-84.529144
20897.4609	-84.549004
20900.3906	-84.585464
20903.3203	-84.600502
20906.2500	-84.596123
20909.1797	-84.621140
20912.1094	-84.663376
20915.0391	-84.667816
20917.9688	-84.653946
20920.8984	-84.678970
20923.8281	-84.709450
20926.7578	-84.699699
20929.6875	-84.695763
20932.6172	-84.733955
20935.5469	-84.756447
20938.4766	-84.772591
20941.4062	-84.808151
20944.3359	-84.818871
20947.2656	-84.835587
20950.1953	-84.864502
20953.1250	-84.912476
20956.0547	-84.971207
20958.9844	-84.981552
20961.9141	-84.973793
20964.8438	-84.976410
20967.7734	-84.972107
20970.7031	-84.969971
20973.6328	-84.982025
20976.5625	-85.006248
20979.4922	-85.040977
20982.4219	-85.077324
20985.3516	-85.081451
20988.2812	-85.097069
20991.2109	-85.151138
20994.1406	-85.153969
20997.0703	-85.158745
21000.0000	-85.204628
21002.9297	-85.184135
21005.8594	-85.165977
21008.7891	-85.204811
21011.7188	-85.220406
21014.6484	-85.212631
21017.5781	-85.238976
21020.5078	-85.297417
21023.4375	-85.338173
21026.3672	-85.351555
21029.2969	-85.328117
21032.2266	-85.301582
21035.1562	-85.319870
21038.0859	-85.350319
21041.0156	-85.368629
21043.9453	-85.359322
21046.8750	-85.366119
21049.8047	-85.425240
21052.7344	-85.427139
21055.6641	-85.424210
21058.5938	-85.468994
21061.5234	-85.477692
21064.4531	-85.471474
21067.3828	-85.436142
21070.3125	-85.428001
21073.2422	-85.477707
21076.1719	-85.488319
21079.1016	-85.476616
21082.0312	-85.512474
21084.9609	-85.557518
21087.8906	-85.564316
21090.8203	-85.566849
21093.7500	-85.598328
21096.6797	-85.628960
21099.6094	-85.636955
21102.5391	-85.635300
21105.4688	-85.641968
21108.3984	-85.677902
21111.3281	-85.691963
21114.2578	-85.706207
21117.1875	-85.751625
21120.1172	-85.746605
21123.0469	-85.749588
21125.9766	-85.774727
21128.9062	-85.768524
21131.8359	-85.803665
21134.7656	-85.865959
21137.6953	-85.876671
21140.6250	-85.865623
21143.5547	-85.875214
21146.4844	-85.901855
21149.4141	-85.952919
21152.3438	-85.951889
21155.2734	-85.912308
21158.2031	-85.926689
21161.1328	-85.961090
21164.0625	-86.006348
21166.9922	-86.036491
21169.9219	-86.050377
21172.8516	-86.049980
21175.7812	-86.032646
21178.7109	-86.008530
21181.6406	-86.017197
21184.5703	-86.034653
21187.5000	-86.045685
21190.4297	-86.068092
21193.3594	-86.112953
21196.2891	-86.148056
21199.2188	-86.148193
21202.1484	-86.146660
21205.0781	-86.146912
21208.0078	-86.134758
21210.9375	-86.163933
21213.8672	-86.221512
21216.7969	-86.261223
21219.7266	-86.263489
21222.6562	-86.246475
21225.5859	-86.248177
21228.5156	-86.252007
21231.4453	-86.247223
21234.3750	-86.251274
21237.3047	-86.251640
21240.2344	-86.269379
21243.1641	-86.334824
21246.0938	-86.389656
21249.0234	-86.392136
21251.9531	-86.358643
21254.8828	-86.332123
21257.8125	-86.356873
21260.7422	-86.400673
21263.6719	-86.405800
21266.6016	-86.393066
21269.5312	-86.380646
21272.4609	-86.379105
21275.3906	-86.401695
21278.3203	-86.408638
21281.2500	-86.418045
21284.1797	-86.465446
21287.1094	-86.504280
21290.0391	-86.515099
21292.9688	-86.523170
21295.8984	-86.516670
21298.8281	-86.535126
21301.7578	-86.597343
21304.6875	-86.612564
21307.6172	-86.579269
21310.5469	-86.570312
21313.4766	-86.610268
21316.4062	-86.636505
21319.3359	-86.614021
21322.2656	-86.629845
21325.1953	-86.673592
21328.1250	-86.698608
21331.0547	-86.721596
21333.9844	-86.738655
21336.9141	-86.802887
21339.8438	-86.878441
21342.7734	-86.850296
21345.7031	-86.785515
21348.6328	-86.758263
21351.5625	-86.797302
21354.4922	-86.864746
21357.4219	-86.865067
21360.3516	-86.824265
21363.2812	-86.803932
21366.2109	-86.845726
21369.1406	-86.898979
21372.0703	-86.914879
21375.0000	-86.915611
21377.9297	-86.887428
21380.8594	-86.851311
21383.7891	-86.877266
21386.7188	-86.959480
21389.6484	-87.008774
21392.5781	-86.992340
21395.5078	-86.969353
21398.4375	-86.992340
21401.3672	-87.023895
21404.2969	-87.011017
21407.2266	-87.014145
21410.1562	-87.071404
21413.0859	-87.121948
21416.0156	-87.127861
21418.9453	-87.092087
21421.8750	-87.077560
21424.8047	-87.090652
21427.7344	-87.115166
21430.6641	-87.151405
21433.5938	-87.136940
21436.5234	-87.114120
21439.4531	-87.092636
21442.3828	-87.088821
21445.3125	-87.154419
21448.2422	-87.212860
21451.1719	-87.242096
21454.1016	-87.250519
21457.0312	-87.216934
21459.9609	-87.211731
21462.8906	-87.258957
21465.8203	-87.275246
21468.7500	-87.263817
21471.6797	-87.267754
21474.6094	-87.248695
21477.5391	-87.261520
21480.4688	-87.347336
21483.3984	-87.411819
21486.3281	-87.441551
21489.2578	-87.450356
21492.1875	-87.449417
21495.1172	-87.446381
21498.0469	-87.461044
21500.9766	-87.514076
21503.9062	-87.540367
21506.8359	-87.504494
21509.7656	-87.467049
21512.6953	-87.473000
21515.6250	-87.511078
21518.5547	-87.524216
21521.4844	-87.553093
21524.4141	-87.555206
21527.3438	-87.533447
21530.2734	-87.550835
21533.2031	-87.577095
21536.1328	-87.608444
21539.0625	-87.621407
21541.9922	-87.612350
21544.9219	-87.633575
21547.8516	-87.641396
21550.7812	-87.598740
21553.7109	-87.580551
21556.6406	-87.628403
21559.5703	-87.642303
21562.5000	-87.591400
21565.4297	-87.585587
21568.3594	-87.622559
21571.2891	-87.660507
21574.2188	-87.732567
21577.1484	-87.762466
21580.0781	-87.689903
21583.0078	-87.661697
21585.9375	-87.706039
21588.8672	-87.746277
21591.7969	-87.777000
21594.7266	-87.768089
21597.6562	-87.758720
